Sample:	'1
File name:	Default_20230713_111503.FD3
Run date:	'11:08:42, 07/13/2023
Operator:	user
Comment:	'

Instrument
Model:	F-2700 FL Spectrophotometer
Serial number:	2190-003
ROM Version:	4J14000 07

Instrument parameters
Measurement type:	3-D scan
Data mode:	Fluorescence
EX  Start WL:	220.0 nm
EX  End WL:	600.0 nm
EX Sampling interval:	5.0 nm
EM  Start WL:	230.0 nm
EM  End WL:	650.0 nm
EM Sampling interval:	5.0 nm
Scan speed:	12000 nm/min
EX Slit:	5.0 nm
EM Slit:	5.0 nm
PMT Voltage:	700 V
Response:	Auto 
Corrected spectra:	Off
Contour interval:	50.000

Peak integration
Integration method:	Rectangular
Sensitivity:	1
Threshold:	1.000

Peaks
No.	ApexEX/EM(nm)	Height(Data)
1	245.0/360.0	 3435
2	250.0/365.0	 3469
3	250.0/545.0	45.62
4	255.0/555.0	40.66
5	260.0/285.0	348.4
6	260.0/570.0	40.28
7	265.0/290.0	372.1
8	265.0/580.0	35.34
9	270.0/295.0	562.4
10	270.0/590.0	38.21
11	270.0/645.0	-6.000
12	275.0/305.0	789.5
13	275.0/605.0	39.87
14	280.0/310.0	785.1
15	280.0/620.0	31.21
16	285.0/315.0	787.9
17	285.0/630.0	30.81
18	290.0/320.0	700.6
19	290.0/380.0	593.2
20	290.0/640.0	24.99
21	295.0/330.0	561.2
22	300.0/335.0	515.2
23	305.0/340.0	541.6
24	315.0/240.0	-6.701
25	315.0/355.0	428.9
26	320.0/280.0	-3.486
27	320.0/360.0	425.3
28	325.0/365.0	385.8
29	330.0/235.0	-5.446
30	335.0/255.0	-4.439
31	335.0/380.0	359.4
32	335.0/625.0	-3.434
33	340.0/385.0	355.7
34	340.0/630.0	-3.417
35	345.0/300.0	-3.068
36	345.0/390.0	324.6
37	350.0/400.0	313.4
38	355.0/405.0	316.2
39	360.0/410.0	290.2
40	365.0/415.0	274.5
41	370.0/425.0	258.9
42	380.0/605.0	0.094
43	415.0/485.0	72.63
44	420.0/640.0	-1.645
45	425.0/495.0	50.04
46	430.0/505.0	39.99
47	440.0/515.0	27.32
48	450.0/530.0	17.85
49	470.0/560.0	5.356
50	500.0/360.0	7.951
51	545.0/300.0	0.474
52	550.0/305.0	0.138
53	555.0/310.0	-0.225
54	565.0/315.0	-0.156
55	575.0/320.0	0.064
56	580.0/325.0	0.133

Data points
	220.0	225.0	230.0	235.0	240.0	245.0	250.0	255.0	260.0	265.0	270.0	275.0	280.0	285.0	290.0	295.0	300.0	305.0	310.0	315.0	320.0	325.0	330.0	335.0	340.0	345.0	350.0	355.0	360.0	365.0	370.0	375.0	380.0	385.0	390.0	395.0	400.0	405.0	410.0	415.0	420.0	425.0	430.0	435.0	440.0	445.0	450.0	455.0	460.0	465.0	470.0	475.0	480.0	485.0	490.0	495.0	500.0	505.0	510.0	515.0	520.0	525.0	530.0	535.0	540.0	545.0	550.0	555.0	560.0	565.0	570.0	575.0	580.0	585.0	590.0	595.0	600.0
230.0	-157.8	-70.22	 1239	 1328	63.16	-59.02	-51.26	-44.59	-36.52	-34.95	-29.60	-27.70	-23.03	-19.01	-16.06	-13.07	-11.26	-9.561	-9.937	-8.233	-7.891	-7.228	-6.414	-5.849	-5.833	-5.322	-5.049	-5.071	-4.858	-4.615	-4.544	-4.437	-3.656	-3.680	-3.258	-3.244	-3.066	-2.991	-3.138	-3.089	-2.994	-2.794	-2.620	-2.691	-2.764	-2.338	-2.338	-1.367	0.882	1.256	-0.630	-2.152	-2.091	-2.529	-2.024	-2.194	-2.399	-2.314	-2.451	-2.365	-2.263	-2.444	-2.504	-2.597	-2.555	-2.379	-2.332	-2.528	-2.547	-2.474	-2.600	-2.454	-2.278	-2.475	-2.731	-2.624	-2.628
235.0	-150.4	-127.0	338.4	 1860	 1607	135.2	-62.03	-42.82	-34.58	-28.21	-29.76	-27.83	-22.03	-17.91	-17.53	-14.98	-12.50	-10.43	-10.03	-9.218	-7.680	-5.701	-5.446	-6.135	-6.579	-5.699	-4.977	-5.849	-6.064	-4.526	-3.436	-4.336	-3.082	-3.959	-3.716	-3.694	-3.725	-3.232	-3.248	-3.351	-2.937	-2.663	-2.666	-2.572	-2.754	-2.688	-2.013	-2.643	-0.987	0.135	2.200	2.538	0.252	-1.715	-2.191	-2.104	-2.163	-2.541	-2.242	-2.519	-2.584	-2.793	-2.256	-2.635	-2.248	-2.516	-2.241	-2.589	-2.612	-2.562	-2.723	-2.422	-2.393	-2.150	-2.601	-2.774	-2.726
240.0	-127.5	-133.2	-2.554	803.8	 2787	 1675	45.18	-42.17	-42.32	-35.05	-27.18	-26.11	-20.36	-18.75	-16.43	-16.85	-13.70	-10.57	-10.70	-6.701	-8.332	-6.828	-6.896	-5.262	-6.466	-5.233	-4.798	-4.777	-5.114	-3.936	-3.971	-3.488	-3.458	-3.926	-3.745	-3.634	-2.936	-3.202	-3.323	-3.069	-3.208	-2.778	-2.858	-2.355	-2.887	-2.411	-2.162	-2.506	-2.187	-1.141	-0.227	3.120	5.509	2.523	-0.909	-2.236	-2.509	-2.295	-2.321	-2.037	-2.138	-2.466	-2.186	-2.441	-2.401	-2.528	-2.233	-2.178	-2.485	-2.616	-2.705	-2.357	-2.267	-2.277	-2.760	-2.632	-2.155
245.0	-148.8	-105.0	-58.29	131.9	 1450	 3625	 1413	5.360	-35.34	-29.99	-29.39	-26.95	-21.75	-18.86	-16.00	-16.96	-11.60	-9.930	-9.443	-7.814	-8.649	-6.228	-6.862	-5.779	-6.049	-5.511	-5.849	-4.157	-5.076	-4.831	-4.205	-3.913	-3.596	-4.186	-3.376	-3.635	-3.414	-3.655	-2.868	-2.830	-2.413	-3.002	-2.890	-2.617	-2.991	-2.380	-2.187	-2.352	-2.020	-1.760	-1.253	-0.169	2.293	6.007	5.619	1.652	-1.610	-2.256	-2.321	-2.298	-2.500	-2.701	-2.655	-2.167	-2.708	-2.401	-2.070	-2.501	-2.320	-2.518	-2.565	-2.337	-2.398	-2.033	-2.442	-2.718	-2.247
250.0	-158.1	-135.6	-68.97	-8.496	307.5	 1757	 3913	 2946	373.7	-27.58	-28.72	-24.00	-21.55	-20.36	-17.63	-14.57	-11.60	-10.16	-9.180	-7.137	-7.718	-7.240	-6.739	-5.488	-6.042	-5.301	-5.439	-4.841	-4.724	-5.001	-4.653	-4.427	-3.687	-3.824	-3.499	-3.519	-3.412	-3.423	-3.410	-2.825	-2.574	-2.936	-2.396	-2.408	-2.869	-2.197	-2.128	-2.280	-1.839	-1.775	-1.520	-1.910	-1.286	0.269	2.815	5.167	6.352	5.412	1.900	-1.465	-2.460	-2.354	-2.553	-2.250	-2.544	-2.361	-2.012	-2.508	-2.525	-2.461	-2.442	-2.339	-2.654	-2.605	-2.552	-2.680	-2.582
255.0	-158.2	-111.6	-110.1	-16.45	80.95	354.9	 1342	 5621	 4971	367.8	-27.57	-25.53	-22.68	-19.98	-16.89	-12.00	-13.06	-11.12	-7.643	-8.125	-8.438	-7.047	-7.784	-4.439	-5.972	-5.540	-5.304	-4.948	-4.654	-5.474	-4.320	-4.713	-3.891	-3.135	-3.679	-3.246	-3.536	-3.619	-3.012	-3.008	-2.759	-2.880	-2.778	-2.549	-2.596	-2.081	-2.222	-2.500	-1.883	-1.902	-1.648	-1.701	-1.545	-1.634	-0.927	-0.265	0.873	5.530	11.07	10.66	3.055	-1.579	-2.467	-2.170	-1.969	-2.485	-2.596	-2.445	-2.808	-2.759	-2.579	-2.522	-2.567	-2.577	-2.404	-2.706	-2.561
260.0	-180.5	-145.4	-106.4	-41.71	80.52	91.12	281.5	 2463	 7681	 1636	160.6	-24.78	-21.16	-16.60	-16.55	-10.53	-9.249	-10.78	-7.362	-8.348	-8.169	-6.199	-6.518	-4.853	-5.876	-5.147	-4.699	-5.666	-4.392	-4.387	-5.049	-4.102	-4.999	-3.673	-3.417	-3.277	-3.505	-3.373	-3.310	-2.455	-2.529	-2.838	-2.665	-2.529	-2.438	-2.689	-2.529	-2.032	-1.985	-1.688	-1.463	-1.858	-1.616	-1.821	-2.036	-1.899	-1.617	-0.429	3.156	11.61	16.43	10.65	0.479	-1.944	-2.287	-2.350	-1.932	-2.598	-3.036	-2.647	-2.287	-2.710	-2.375	-1.785	-2.393	-2.578	-2.597
265.0	-140.7	-128.7	-122.7	-74.42	13.49	126.9	47.59	574.7	 3843	 7798	 1319	34.34	-13.86	-13.35	-15.23	-11.75	-9.358	-10.63	-9.086	-7.309	-6.724	-6.788	-6.906	-5.607	-5.652	-5.034	-4.700	-4.832	-4.084	-4.752	-3.843	-3.905	-4.011	-4.155	-3.939	-3.449	-2.714	-3.387	-2.922	-2.826	-2.795	-2.784	-2.533	-3.087	-2.599	-2.511	-2.460	-2.166	-2.146	-1.732	-1.514	-1.822	-2.085	-1.760	-1.840	-2.116	-2.141	-1.942	-0.743	1.492	8.301	17.26	15.94	8.229	-0.821	-2.490	-2.159	-2.494	-2.637	-2.918	-2.081	-2.713	-3.196	-2.555	-2.910	-2.590	-2.700
270.0	-145.4	-131.8	-117.4	-73.16	-47.43	66.44	133.6	152.8	908.7	 3531	 6547	 4359	320.6	-10.11	-14.50	-11.00	-10.12	-9.392	-6.703	-7.057	-6.945	-7.006	-6.212	-5.157	-5.842	-5.074	-4.400	-4.961	-4.701	-5.307	-4.177	-3.817	-4.090	-4.216	-3.812	-3.400	-3.027	-2.984	-3.232	-3.038	-2.995	-3.045	-2.603	-3.053	-2.574	-2.655	-2.261	-2.358	-2.304	-1.565	-1.820	-2.197	-1.967	-1.956	-1.665	-1.721	-1.789	-1.958	-2.065	-1.476	0.294	3.221	7.866	14.85	17.85	14.68	5.211	-1.170	-2.191	-2.732	-2.350	-2.774	-2.663	-2.737	-2.593	-2.528	-2.837
275.0	-136.9	-142.4	-103.3	-87.52	-58.07	-17.83	78.72	202.4	217.6	787.0	 2047	 8026	 6507	347.2	-10.85	-8.345	-9.399	-8.292	-6.459	-6.485	-5.340	-5.938	-6.110	-5.755	-5.028	-5.594	-4.884	-4.757	-4.704	-4.529	-4.264	-4.090	-4.572	-4.030	-3.797	-3.505	-3.441	-2.995	-2.498	-2.720	-2.936	-3.273	-2.882	-2.636	-2.127	-2.363	-1.835	-2.260	-2.312	-1.523	-1.873	-2.008	-1.978	-2.163	-2.081	-1.824	-1.848	-1.621	-1.588	-1.964	-1.728	-0.730	-0.101	1.651	4.153	13.17	28.51	26.35	8.059	-1.860	-2.407	-2.549	-2.153	-2.154	-2.049	-2.221	-2.782
280.0	-159.9	-113.3	-102.2	-84.01	-73.62	-43.41	6.636	214.9	224.0	187.5	481.5	 3099	9999.9	 4861	150.7	-7.914	-8.675	-7.415	-5.906	-6.599	-3.486	-4.056	-4.005	-5.682	-5.528	-5.063	-3.537	-4.699	-4.181	-4.953	-5.248	-4.487	-4.011	-4.292	-3.938	-3.212	-3.087	-2.958	-2.586	-2.352	-2.578	-3.038	-2.990	-2.841	-2.364	-2.662	-2.232	-2.503	-2.201	-1.488	-1.597	-1.902	-2.090	-2.318	-2.096	-2.155	-2.154	-1.832	-1.244	-1.763	-2.391	-2.008	-2.051	-1.035	-0.565	1.443	10.31	26.74	32.24	19.70	1.859	-1.839	-2.502	-2.331	-2.409	-2.480	-2.661
285.0	-111.7	-106.6	-87.95	-55.20	-59.38	-50.92	-30.69	79.91	348.4	155.8	139.8	771.7	 4620	9999.9	777.7	41.06	-7.124	-5.435	-5.328	-6.026	-6.550	-5.176	-5.138	-5.404	-4.786	-4.484	-4.146	-4.605	-4.844	-5.202	-5.308	-4.784	-3.770	-3.843	-3.329	-3.407	-3.013	-3.302	-2.593	-3.186	-3.184	-3.298	-3.004	-2.314	-2.750	-2.540	-2.172	-2.130	-1.895	-1.741	-2.066	-1.983	-1.983	-2.291	-2.319	-1.738	-2.224	-1.929	-1.830	-0.987	-1.213	-1.404	-2.377	-1.751	-1.535	-1.095	0.768	6.055	16.97	34.17	33.02	11.51	-0.871	-2.226	-2.217	-2.255	-2.447
290.0	-126.3	-106.5	-53.32	-36.04	-40.88	-39.76	-16.65	14.07	189.9	372.1	227.2	270.4	 1184	 4603	 8526	 4773	209.1	-1.809	-4.530	-5.106	-6.492	-4.982	-4.863	-5.222	-4.551	-4.737	-4.306	-4.672	-4.209	-4.711	-4.209	-4.538	-4.142	-3.420	-3.306	-3.307	-2.929	-3.105	-2.546	-2.794	-2.995	-3.147	-2.926	-2.495	-2.690	-2.695	-2.090	-2.120	-1.581	-1.526	-1.672	-1.973	-1.797	-2.221	-2.183	-1.996	-1.837	-2.002	-1.780	-1.673	-1.461	-0.896	-1.140	-1.494	-1.665	-1.689	-1.311	-0.488	2.419	8.275	17.07	24.69	26.71	19.37	6.817	-0.725	-2.767
295.0	-127.9	-65.58	-39.10	-26.74	-27.53	-19.89	1.294	17.95	81.82	248.8	562.4	349.1	433.9	 1151	 2658	 9660	 4206	256.9	-0.184	-2.876	-4.168	-3.660	-4.864	-4.811	-4.172	-4.768	-3.780	-4.378	-3.749	-4.658	-4.353	-4.718	-3.464	-3.780	-3.078	-3.188	-2.583	-3.127	-2.592	-3.246	-2.548	-2.972	-2.531	-2.106	-2.795	-2.317	-2.371	-2.288	-2.019	-1.433	-1.463	-1.925	-1.861	-2.207	-2.079	-1.958	-1.643	-2.571	-2.010	-1.809	-1.734	-1.412	-1.160	-0.629	-0.962	-1.201	-1.540	-1.620	-0.799	0.566	2.136	4.133	7.223	20.22	38.89	30.97	8.577
300.0	-123.5	-44.82	-25.82	-26.42	-9.136	5.036	26.14	41.54	97.35	188.9	515.7	659.2	345.6	426.5	717.3	 3702	9999.9	 3338	136.9	-0.565	-2.934	-3.380	-4.393	-4.589	-3.584	-3.068	-3.183	-4.159	-4.480	-3.874	-4.515	-3.693	-3.806	-4.122	-3.154	-3.302	-2.831	-3.452	-3.153	-3.284	-2.499	-2.766	-2.836	-2.884	-2.621	-2.758	-2.270	-2.101	-1.921	-1.492	-1.418	-1.746	-1.827	-2.209	-1.973	-2.236	-1.633	-2.483	-1.768	-1.939	-2.060	-1.601	-1.768	-1.256	-0.553	0.474	-1.206	-1.377	-1.303	-1.028	-1.205	-0.693	-0.066	3.514	15.95	34.56	40.45
305.0	-103.0	-57.43	-2.771	7.162	11.13	2.647	29.51	78.67	120.9	199.7	363.3	789.5	602.5	326.7	299.6	941.8	 5131	9999.9	 2450	41.88	-1.101	-2.363	-2.932	-4.709	-3.662	-3.862	-4.656	-3.654	-4.699	-4.507	-4.794	-2.855	-4.111	-2.827	-3.547	-3.162	-2.792	-3.299	-3.178	-3.058	-2.587	-2.636	-2.650	-2.659	-2.279	-2.143	-1.673	-1.650	-1.907	-1.505	-1.497	-1.700	-1.741	-2.222	-2.171	-2.429	-1.878	-2.130	-1.272	-2.295	-1.821	-2.142	-1.440	-1.552	-0.971	-0.714	0.138	-0.266	-0.985	-1.582	-1.660	-1.418	-1.549	-1.200	2.186	8.912	24.15
310.0	-116.6	-29.75	26.56	41.94	35.48	30.50	51.67	101.4	146.8	223.9	346.0	555.6	785.1	555.3	264.8	314.1	 1259	 4805	 8825	 4295	148.5	1.197	-1.740	-3.411	-4.062	-4.191	-4.275	-3.895	-4.150	-3.505	-4.268	-3.499	-4.206	-3.187	-3.258	-2.959	-3.048	-3.040	-2.908	-2.814	-2.538	-2.580	-2.536	-2.342	-2.387	-2.406	-1.898	-1.694	-1.534	-1.636	-1.358	-1.923	-1.967	-2.128	-1.963	-2.063	-2.144	-1.804	-1.820	-1.372	-1.562	-1.643	-1.461	-1.424	-1.190	-1.035	-0.489	-0.225	-0.227	-0.633	-0.992	-1.427	-1.807	-1.940	-0.800	0.299	3.668
315.0	-84.80	-13.95	57.64	47.84	55.21	63.48	86.56	149.8	195.1	268.4	349.7	466.5	603.6	787.9	467.1	211.8	354.9	 1123	 2780	 9334	 6209	190.8	-0.729	-2.545	-3.590	-3.923	-4.233	-2.984	-3.517	-4.137	-3.600	-3.508	-3.935	-3.734	-3.454	-2.939	-3.057	-2.759	-2.096	-3.371	-2.258	-2.496	-2.913	-2.725	-2.138	-2.452	-1.724	-1.893	-1.533	-1.844	-1.226	-1.565	-1.787	-1.407	-1.536	-1.833	-2.029	-1.612	-1.399	-1.549	-1.505	-1.758	-1.524	-1.283	-0.999	-1.043	-0.888	-1.092	-0.611	-0.156	-0.233	-0.639	-1.532	-1.564	-2.261	-1.571	-0.979
320.0	-72.38	27.87	107.4	108.3	98.60	115.6	160.9	204.1	232.0	324.4	387.6	474.7	507.8	641.5	700.6	289.0	184.3	317.9	671.2	 3800	9999.9	 2416	113.1	0.521	-1.642	-2.719	-3.238	-2.440	-4.201	-4.259	-4.572	-3.789	-3.525	-3.339	-3.194	-2.738	-2.994	-2.675	-2.635	-2.844	-2.446	-2.173	-2.306	-2.681	-2.252	-2.627	-1.272	-1.938	-1.481	-1.474	-1.174	-1.622	-1.419	-1.567	-1.407	-1.640	-1.643	-1.170	-1.437	-1.562	-0.452	-1.526	-1.429	-1.262	-1.507	-0.956	-0.573	-1.643	-1.143	-0.528	-0.624	0.064	-0.802	-1.340	-2.043	-1.727	-2.213
325.0	-8.150	75.65	156.9	246.0	237.9	277.7	293.7	322.5	327.2	383.4	430.3	484.4	502.8	527.6	666.5	503.5	188.7	163.1	203.4	927.2	 5162	 9660	 1892	40.58	-1.483	-2.388	-3.682	-3.035	-3.849	-3.963	-4.314	-3.843	-3.935	-2.943	-3.173	-2.758	-3.207	-2.589	-2.385	-2.267	-2.598	-2.663	-1.892	-2.048	-2.082	-1.825	-1.621	-1.946	-1.645	-1.297	-1.284	-1.745	-0.848	-1.631	-0.971	-1.221	-1.806	-1.267	-1.225	-1.203	-0.709	-0.949	-1.441	-1.628	-0.860	-0.745	-0.655	-1.187	-0.736	-0.713	-0.800	-0.576	0.133	0.108	-1.111	-1.370	-1.601
330.0	-1.708	160.5	282.0	453.7	562.1	637.1	698.8	681.7	593.0	566.3	526.2	519.9	525.7	505.4	489.0	561.2	406.6	187.0	130.0	265.6	 1260	 4632	 7578	 3657	119.5	1.118	-1.933	-2.250	-2.924	-3.016	-3.201	-2.909	-3.618	-2.989	-3.189	-2.633	-2.959	-2.605	-2.744	-2.396	-2.532	-1.929	-2.543	-2.163	-2.295	-1.924	-1.624	-1.401	-1.314	-0.583	-0.674	-0.880	-0.438	-0.436	0.146	0.305	-0.147	-0.185	-0.470	-0.531	-0.674	-0.536	-0.807	-0.880	-0.979	-0.868	-0.891	-1.029	-1.166	-1.362	-1.027	-1.145	-0.668	-0.907	-0.567	-0.969	-1.367
335.0	35.44	228.3	529.1	840.5	 1049	 1178	 1279	 1212	 1013	858.6	670.1	570.1	556.9	524.5	469.7	432.4	515.2	400.6	173.4	148.4	338.9	 1073	 2571	 8466	 5497	166.9	1.075	-1.153	-0.969	-2.664	-2.784	-2.478	-3.390	-3.159	-2.831	-2.396	-2.368	-2.636	-2.644	-2.355	-2.525	-2.104	-2.409	-1.975	-2.303	-2.202	-0.878	-1.328	-0.563	-0.013	0.125	0.461	0.494	0.709	1.059	1.819	1.910	1.380	0.898	1.066	0.019	-0.009	0.040	-0.326	-0.604	-0.737	-0.891	-1.288	-0.844	-1.030	-1.136	-1.120	-1.055	-1.340	-1.339	-0.341	-0.211
340.0	150.4	417.7	729.5	 1220	 1469	 1771	 1829	 1642	 1358	 1122	804.3	614.4	600.6	548.3	499.6	415.1	425.7	541.6	302.8	161.5	154.1	290.6	619.7	 3677	 9523	 1939	104.2	-0.471	-1.115	-1.738	-2.657	-2.954	-3.359	-3.164	-3.145	-2.789	-2.552	-2.401	-2.964	-2.553	-2.907	-2.733	-2.040	-1.767	-2.069	-1.549	-1.037	-0.483	-0.025	0.597	1.302	2.098	1.937	2.882	2.366	3.206	3.106	2.810	2.383	2.579	1.647	1.063	0.623	0.217	-0.902	-0.893	-0.641	-0.952	-0.873	-1.509	-1.056	-1.534	-1.321	-1.282	-1.149	-1.263	-0.329
345.0	160.4	500.2	 1009	 1536	 1841	 2214	 2412	 2079	 1675	 1364	927.2	639.8	593.9	572.8	517.3	432.5	384.2	479.7	476.6	225.3	137.4	136.4	183.2	904.3	 5030	 8738	 1595	41.49	0.266	-1.189	-1.278	-3.019	-1.981	-3.199	-1.978	-2.809	-2.511	-1.958	-2.661	-2.829	-3.298	-2.454	-1.782	-1.944	-1.652	-1.618	-0.400	-0.504	0.302	1.225	1.773	2.860	3.102	4.543	4.020	4.450	4.345	3.922	3.324	2.836	3.047	1.524	0.897	0.567	-0.588	-0.360	-0.603	-0.695	-1.077	-0.989	-0.949	-1.711	-0.884	-1.287	-0.914	-1.602	-1.205
350.0	212.2	629.6	 1180	 1776	 2340	 2745	 2865	 2527	 1967	 1607	 1042	672.9	611.6	601.9	546.2	477.4	407.8	405.2	454.9	408.0	204.1	126.2	111.4	250.1	 1235	 4309	 6907	 3267	108.6	1.477	-1.041	-2.240	-2.138	-2.505	-2.067	-2.372	-2.582	-2.140	-2.478	-2.123	-3.039	-2.128	-2.132	-1.868	-1.328	-1.162	-0.648	0.111	0.853	1.683	2.581	4.308	4.280	4.981	5.497	6.027	5.631	5.608	4.206	3.859	3.534	2.135	1.476	0.899	0.043	0.134	-0.547	-0.717	-0.645	-0.898	-1.184	-0.857	-0.769	-1.252	-1.094	-1.123	-1.309
355.0	221.2	655.6	 1297	 1985	 2641	 3203	 3207	 2838	 2221	 1803	 1144	712.0	620.8	619.7	559.4	499.5	443.4	404.1	385.8	428.9	373.6	184.8	124.0	126.6	325.4	998.1	 2442	 7455	 4970	150.5	0.726	-0.371	-1.843	-1.853	-2.368	-2.109	-2.657	-2.307	-2.546	-2.325	-2.485	-2.429	-2.367	-2.032	-1.620	-0.412	0.309	0.876	1.358	1.910	2.892	4.282	4.635	5.988	6.207	6.897	7.090	6.690	5.427	4.121	3.661	3.007	2.853	0.782	0.663	-0.466	-0.945	-0.852	-1.125	-0.723	-0.392	-0.867	-0.831	-0.963	-1.092	-0.747	-1.211
360.0	272.5	722.6	 1304	 2146	 2754	 3435	 3410	 2893	 2379	 1823	 1194	735.9	637.6	629.0	563.0	515.2	480.2	438.8	378.7	366.5	425.3	287.5	151.3	119.2	142.2	274.2	589.6	 3302	 8416	 1726	93.19	0.931	-0.218	-1.384	-2.181	-2.641	-2.377	-2.361	-1.538	-2.563	-1.699	-2.215	-2.019	-1.626	-1.418	-0.595	0.305	0.276	1.189	1.522	3.513	4.103	4.905	6.541	7.115	7.891	7.951	7.681	5.864	4.752	4.542	3.295	2.635	0.892	-0.015	-0.725	-1.213	-1.127	-0.788	-0.629	-0.299	-0.212	-0.855	-1.168	-1.092	-0.748	-1.211
365.0	263.6	709.1	 1319	 2124	 2804	 3341	 3469	 3029	 2398	 1861	 1198	720.9	632.3	621.7	588.8	545.8	502.2	451.1	414.5	357.3	380.7	385.8	228.0	141.1	117.7	120.9	173.8	814.6	 4431	 7845	 1428	35.80	0.721	-1.276	-1.987	-2.234	-2.294	-1.864	-1.711	-2.210	-1.677	-2.274	-1.235	-1.656	-1.414	-0.183	0.010	-0.205	1.588	1.881	2.806	4.825	5.347	6.356	7.238	7.740	7.035	7.009	5.188	5.199	4.511	3.369	2.480	1.265	-0.093	-0.259	-0.813	-1.147	-1.030	-1.008	-0.383	-1.161	-0.326	-1.097	-1.038	-0.474	-0.887
370.0	270.8	689.5	 1319	 2079	 2808	 3275	 3347	 2893	 2331	 1811	 1191	723.8	623.7	616.4	592.9	547.9	518.9	486.2	438.7	379.8	345.6	367.7	359.3	224.3	141.3	115.6	105.5	226.2	 1092	 3886	 6297	 3387	91.01	1.302	-1.214	-1.420	-1.420	-1.909	-2.326	-2.134	-1.520	-2.415	-1.751	-1.811	-1.305	-0.368	0.276	0.367	0.822	1.968	3.184	5.534	5.209	6.246	6.590	7.867	7.491	6.481	5.560	4.811	4.407	3.349	2.025	1.065	0.021	-0.536	-0.392	-0.935	-1.122	-1.113	-0.457	-0.931	-0.927	-0.866	-0.936	-0.842	-0.916
375.0	234.1	648.8	 1239	 1956	 2650	 3085	 3153	 2728	 2179	 1760	 1123	685.9	601.5	608.0	586.0	557.3	534.4	492.0	465.9	413.8	364.9	327.1	353.6	346.4	209.7	142.3	111.2	118.1	290.4	901.7	 2238	 6939	 4317	120.7	-0.032	-0.048	-1.523	-1.567	-1.734	-1.734	-2.119	-1.753	-1.974	-1.650	-1.013	-0.863	-0.127	0.183	1.133	1.852	2.642	4.675	5.502	6.153	5.776	7.419	6.736	5.972	5.234	4.318	3.187	2.814	2.303	1.258	0.186	-0.279	-0.537	-0.460	-1.148	-1.071	-0.581	-0.883	-0.656	-0.674	-0.941	-1.078	-0.711
380.0	248.8	603.1	 1180	 1828	 2499	 2974	 2917	 2612	 2059	 1688	 1089	680.3	600.4	579.7	593.2	558.9	523.7	507.2	479.2	427.9	373.5	335.3	322.0	359.4	300.3	177.0	130.5	107.9	122.4	242.7	540.1	 3087	 7430	 1389	71.16	0.804	-0.894	-1.501	-1.826	-1.978	-2.233	-2.310	-2.101	-2.010	-1.196	-0.284	-0.430	-0.160	1.157	1.777	2.168	3.729	4.946	4.827	5.326	6.707	5.474	5.975	4.143	3.716	2.870	2.419	2.306	0.893	0.080	-0.554	-0.470	-0.873	-0.727	-0.785	-0.974	-1.118	-0.889	-1.071	-0.733	-0.767	-0.888
385.0	215.5	497.8	 1050	 1625	 2271	 2620	 2728	 2377	 1980	 1532	992.6	660.2	574.9	572.5	568.1	548.1	529.6	526.0	480.2	431.4	384.7	351.1	318.0	329.1	355.7	243.7	148.8	121.7	100.6	107.9	158.1	762.6	 3994	 6541	 1109	22.38	0.776	-1.084	-1.257	-2.117	-2.329	-2.346	-1.466	-1.252	-1.137	-0.993	-0.698	0.124	0.670	1.434	1.863	3.081	5.715	5.012	5.450	6.074	5.159	4.438	4.266	3.907	2.626	2.342	1.404	0.339	-0.086	-0.752	-1.038	-0.473	-0.631	-0.839	-0.545	-0.718	-0.848	-1.022	-1.136	-0.336	-0.992
390.0	174.4	481.6	966.9	 1457	 2008	 2327	 2401	 2134	 1755	 1396	937.5	625.1	565.3	552.6	556.1	536.5	520.0	515.2	485.2	444.3	395.9	365.2	333.3	315.4	323.3	324.6	227.2	152.0	119.0	96.66	87.08	206.6	985.1	 3258	 5011	 2220	68.26	0.213	-0.776	-1.631	-1.502	-1.811	-1.832	-1.612	-1.316	-1.204	-0.459	-0.471	0.597	1.083	1.734	2.847	3.625	3.634	3.631	4.368	4.070	3.814	3.292	2.977	2.046	2.116	1.001	0.526	-0.232	-0.745	-0.474	-0.878	-0.810	-0.706	-0.656	-0.896	-1.269	-1.053	-0.973	-1.041	-1.099
395.0	164.1	372.0	759.4	 1203	 1670	 2002	 2054	 1828	 1514	 1247	841.2	596.7	551.5	555.3	522.3	523.8	502.7	506.7	472.7	435.8	401.9	368.0	336.3	324.4	303.4	302.7	312.3	217.7	143.8	114.3	89.71	96.53	253.3	748.2	 1840	 5311	 3196	88.88	1.137	-0.819	-1.089	-1.392	-2.277	-1.867	-1.502	-1.575	-0.797	-0.235	0.230	0.231	1.234	1.821	2.528	3.207	3.355	3.245	3.609	3.943	2.428	1.980	1.278	1.768	1.076	0.296	-0.457	-0.945	-0.847	-0.332	-1.154	-0.804	-0.974	-1.520	-0.881	-0.857	-0.491	-0.743	-0.656
400.0	112.6	339.6	614.3	 1077	 1448	 1719	 1809	 1630	 1357	 1072	792.7	585.7	549.4	529.4	535.5	504.2	491.8	489.4	471.5	438.9	407.9	380.9	349.0	327.7	302.2	281.0	313.4	281.7	178.8	132.9	100.8	80.56	98.97	194.7	439.5	 2434	 5602	 1112	49.51	-0.683	-1.229	-1.467	-1.499	-1.984	-1.468	-1.227	-0.600	-0.322	-0.483	0.419	0.793	1.697	2.495	2.943	3.062	2.466	2.298	2.711	2.181	1.792	1.152	0.737	1.125	-0.369	-0.668	-0.678	-1.072	-0.434	-0.773	-0.673	-0.635	-1.191	-1.229	-0.627	-0.459	-0.741	-1.051
405.0	54.79	289.9	602.6	986.0	 1262	 1473	 1560	 1458	 1199	975.6	709.5	562.8	530.8	525.5	497.2	484.3	475.8	478.9	469.0	446.4	411.5	381.5	356.5	324.9	311.2	281.8	282.6	316.2	240.9	152.6	115.3	87.98	73.56	80.15	124.5	599.1	 3037	 4937	876.8	14.59	-0.289	-0.116	-1.402	-1.849	-1.711	-1.565	-0.876	-0.867	-0.101	0.006	0.728	1.463	0.962	2.276	2.755	1.970	1.666	2.243	1.491	1.360	0.632	0.745	0.110	-0.590	-0.963	-0.486	-0.667	-0.729	-0.823	-0.617	-0.656	-1.277	-1.036	-0.853	-0.928	-0.910	-0.985
410.0	29.68	228.9	482.3	773.0	 1043	 1238	 1330	 1219	 1036	876.4	658.3	529.9	503.9	502.3	487.1	464.8	459.8	459.0	446.2	429.8	406.5	384.5	355.1	337.9	321.9	292.8	278.8	279.4	290.2	218.0	146.9	107.8	81.70	65.20	61.45	156.0	744.6	 2518	 3792	 1648	54.64	-0.004	-1.079	-1.049	-1.138	-1.520	-1.240	-1.049	-0.316	-0.354	0.133	0.690	0.544	1.501	1.463	1.992	0.939	1.213	0.913	0.412	0.427	0.097	-0.074	-0.392	-1.103	-0.543	-0.997	-0.872	-1.083	-1.273	-0.405	-0.988	-1.103	-0.982	-1.141	-1.174	-0.746
415.0	3.217	136.1	413.4	630.3	875.4	 1025	 1131	 1081	872.3	747.6	603.0	493.9	480.2	463.4	469.2	442.3	426.6	440.8	430.8	411.9	389.3	369.8	362.5	347.2	324.1	296.8	281.1	266.0	260.1	274.5	197.9	128.8	100.1	72.31	57.92	64.28	187.5	576.6	 1383	 3869	 1052	73.22	0.194	-0.972	-1.429	-0.892	-0.993	-0.995	-0.456	-0.363	0.167	0.015	0.197	0.729	1.282	1.873	1.099	1.048	0.461	0.191	0.284	-0.160	0.123	-0.904	-1.067	-0.794	-1.056	-0.974	-1.021	-0.505	-0.785	-1.160	-1.050	-0.784	-1.225	-1.152	-1.258
420.0	-47.35	100.1	330.7	525.4	744.8	852.0	954.3	895.2	792.2	677.9	564.2	490.8	466.5	454.6	451.3	424.0	411.5	410.1	404.5	400.2	383.6	375.2	347.3	334.9	320.6	292.9	283.3	269.2	252.3	266.3	251.3	161.7	110.0	85.95	63.01	50.05	66.93	142.8	327.5	 1767	 3819	945.8	35.89	-0.282	-0.942	-1.079	-0.554	-0.620	-0.790	-0.279	-0.521	-0.082	-0.340	0.138	0.990	1.024	0.744	0.246	0.470	-0.100	-0.246	-0.463	-0.032	-0.221	-0.546	-0.974	-1.042	-1.320	-0.777	-0.806	-0.454	-0.974	-1.270	-1.132	-1.358	-1.739	-0.918
425.0	-47.54	103.4	278.1	445.0	681.6	747.2	840.8	768.8	725.4	635.5	539.5	479.2	464.3	459.1	430.7	416.6	406.5	389.9	388.3	380.4	368.2	364.5	348.9	336.1	319.5	301.0	275.3	274.7	250.3	244.0	258.9	207.5	127.5	95.11	69.78	51.88	44.78	50.43	87.86	430.8	 2188	 3579	696.5	9.985	-1.370	-1.136	-0.214	-0.845	-0.562	-0.765	-0.255	-0.106	-0.095	0.567	0.403	0.912	0.386	0.312	-0.062	-0.001	-0.495	-0.139	-0.232	-0.453	-0.808	-1.059	-1.153	-1.128	-0.732	-0.783	-1.679	-1.263	-1.239	-1.087	-1.402	-1.279	-0.656
430.0	35.22	76.66	248.4	410.7	580.3	667.9	718.9	667.9	644.8	592.9	515.1	466.7	452.5	428.3	405.7	397.9	386.7	373.9	367.5	363.8	349.0	355.4	339.6	323.5	314.1	300.6	288.6	268.1	256.1	239.6	229.2	228.3	175.1	115.8	82.02	62.73	48.08	37.20	39.91	109.5	536.8	 1838	 2834	 1222	47.48	-0.306	-0.633	-0.773	-0.804	-0.844	-0.154	-0.784	-0.353	0.016	0.026	0.207	0.189	0.030	0.106	0.178	-0.363	-0.434	-0.767	-1.033	-0.961	-1.447	-0.854	-1.107	-1.132	-1.085	-1.211	-1.159	-1.343	-0.861	-1.212	-1.496	-1.457
435.0	124.4	65.49	171.8	328.8	468.9	547.5	641.6	624.0	573.0	547.4	522.1	455.8	455.7	409.4	392.4	373.7	365.4	357.6	352.6	343.0	342.4	341.1	328.1	322.3	312.2	298.1	293.1	271.9	258.0	243.4	224.7	212.7	209.6	156.1	100.8	73.67	57.38	42.01	34.83	42.70	132.3	419.9	 1107	 3140	939.3	61.30	0.472	-0.517	-0.703	-0.610	-0.542	-0.893	-0.409	-0.227	-0.374	-0.281	0.621	-0.089	0.190	-0.761	-0.592	-0.782	-0.915	-0.551	-0.670	-1.292	-1.140	-0.978	-0.773	-0.906	-0.951	-1.180	-0.992	-0.548	-1.007	-1.009	-1.106
440.0	139.2	103.3	163.6	293.5	447.8	494.5	571.0	556.3	565.8	508.0	500.3	457.4	444.8	413.5	386.4	356.7	351.1	342.1	337.1	325.2	334.2	326.1	312.3	316.4	304.9	298.3	282.1	270.9	261.5	247.3	228.0	205.2	202.5	184.4	123.4	85.44	64.01	48.88	38.68	31.96	45.29	104.8	264.4	 1564	 3245	801.5	26.82	0.332	-0.511	-0.532	-0.582	-0.534	-0.490	-0.035	-0.599	-0.132	-0.512	-0.729	-0.255	-0.649	-1.051	-0.742	-0.844	-0.695	-1.197	-1.102	-1.017	-1.056	-1.021	-0.898	-1.409	-1.090	-1.109	-0.909	-1.685	-1.110	-1.312
445.0	78.14	267.5	125.4	230.5	394.5	442.7	543.2	529.0	518.7	505.4	507.0	452.7	421.5	415.6	389.9	337.5	333.6	328.8	328.4	315.0	313.2	321.9	299.5	303.6	297.5	289.2	285.2	265.9	265.4	247.3	236.0	203.8	187.8	195.6	149.9	97.37	73.74	57.99	42.96	33.67	28.61	36.59	68.04	390.4	 2015	 3102	543.8	6.886	0.171	-0.757	-0.394	-0.915	-0.693	-0.114	-1.009	-0.749	-0.874	-0.308	-0.690	-0.657	-0.694	-0.375	-0.747	-0.797	-0.969	-1.381	-1.100	-1.117	-1.079	-1.093	-1.723	-1.317	-1.334	-1.121	-1.289	-1.163	-1.669
450.0	-37.91	352.2	319.6	214.2	334.5	407.6	465.3	475.8	469.8	462.5	460.2	445.4	405.0	399.4	363.6	332.8	314.7	302.5	298.0	292.8	295.9	292.4	286.5	287.0	279.1	284.5	274.3	262.0	258.3	248.0	231.2	205.7	181.5	171.9	166.4	123.8	86.29	64.66	50.32	39.73	29.93	25.81	28.02	95.40	505.3	 1754	 2621	 1047	34.01	0.115	-0.462	-0.766	-0.509	-0.739	-1.066	-0.512	-0.749	-0.954	-0.673	-0.382	-1.196	-0.822	-0.741	-1.028	-0.911	-1.262	-0.955	-0.946	-1.229	-1.163	-1.331	-1.445	-1.282	-1.261	-1.663	-1.481	-1.348
455.0	-79.68	150.0	725.6	274.4	285.8	345.1	399.5	422.9	439.2	443.0	431.6	417.3	403.9	360.7	339.8	307.3	289.4	272.5	279.5	269.2	269.1	265.3	261.8	269.3	260.2	268.7	260.7	249.4	246.0	235.3	225.6	204.6	179.4	155.9	149.9	144.4	108.0	73.53	55.82	43.95	33.75	26.24	21.87	31.67	119.1	398.3	 1071	 2884	724.0	36.29	-0.116	-0.469	-0.647	-0.908	-0.971	-0.670	-0.897	-0.634	-1.168	-0.918	-0.978	-0.903	-1.269	-1.072	-0.897	-0.972	-1.372	-0.849	-1.442	-1.281	-1.498	-1.524	-1.211	-1.325	-1.506	-1.866	-1.671
460.0	-73.73	27.96	877.4	551.4	253.4	306.5	349.4	392.7	379.3	417.7	418.2	397.4	378.6	358.4	322.6	283.0	279.6	263.3	262.4	253.5	256.4	245.5	246.5	251.7	245.6	250.0	247.6	242.1	236.4	221.5	221.2	198.3	175.9	149.9	134.9	137.8	127.2	85.03	60.23	47.10	37.32	26.60	21.45	19.44	35.10	95.37	255.3	 1539	 2758	528.5	15.48	0.282	-0.728	-0.970	-0.597	-0.580	-1.347	-0.953	-1.484	-0.848	-1.226	-0.887	-0.632	-0.885	-1.215	-1.428	-1.197	-1.153	-1.425	-1.709	-1.656	-1.103	-1.304	-1.274	-1.092	-1.419	-1.560
465.0	-78.19	-29.06	662.1	 1044	271.1	275.6	321.6	331.9	358.8	382.5	386.5	378.9	362.2	331.0	301.0	280.3	267.0	242.2	237.3	227.4	228.6	225.0	230.4	236.0	228.8	232.1	229.2	230.1	223.1	216.9	206.8	187.6	170.1	146.0	127.2	121.2	122.8	99.49	67.73	52.28	41.05	28.38	22.28	17.81	17.44	28.45	62.94	387.8	 1877	 2366	398.9	3.066	-0.393	-0.484	-0.861	-1.255	-0.666	-1.139	-1.234	-0.611	-1.375	-0.473	-1.337	-1.283	-1.406	-1.066	-1.663	-0.826	-1.468	-1.982	-1.655	-1.364	-1.271	-1.791	-1.593	-1.372	-1.494
470.0	-69.53	-51.79	208.1	 1217	718.0	243.1	275.6	298.8	333.8	338.1	344.8	334.7	336.7	292.4	267.6	248.5	234.7	211.6	213.0	213.7	207.6	199.9	209.9	208.1	203.7	205.7	205.7	209.4	204.0	199.1	191.5	179.6	161.0	137.3	119.5	109.9	105.5	103.7	79.60	53.46	41.16	32.39	24.25	18.33	14.58	13.66	19.79	91.45	477.2	 1486	 1848	419.3	24.30	-0.348	-0.829	-0.816	-0.926	-0.486	-1.222	-0.788	-1.350	-0.964	-1.332	-1.318	-1.505	-1.092	-1.589	-1.124	-1.235	-1.716	-1.397	-1.303	-1.805	-1.428	-1.583	-1.598	-1.853
475.0	-87.74	-43.73	60.72	637.6	 1516	317.8	247.4	248.0	281.0	302.2	296.2	315.6	295.7	267.3	250.7	221.6	203.5	194.8	190.8	186.6	185.1	181.5	185.5	184.2	186.5	186.5	181.7	183.6	186.7	182.6	173.8	166.7	146.3	130.7	114.2	100.9	92.19	86.52	86.58	63.80	43.39	34.17	24.95	21.01	15.17	11.92	11.12	25.98	110.8	337.3	840.4	 1867	598.6	20.54	-0.376	-0.699	-1.386	-0.952	-1.376	-1.136	-1.156	-1.496	-1.402	-1.261	-1.791	-1.284	-1.458	-1.391	-1.488	-2.011	-1.389	-1.687	-1.957	-1.740	-1.878	-1.969	-1.455
480.0	-113.6	-63.61	-2.763	245.6	 1616	791.0	200.7	226.1	269.3	290.0	284.9	290.0	270.0	258.5	238.4	204.6	188.6	174.8	176.2	169.9	169.2	165.7	161.0	163.2	167.7	171.4	169.2	168.8	171.9	169.1	162.2	150.9	139.3	124.0	106.6	94.88	85.66	76.18	81.19	71.43	47.98	34.60	24.96	19.96	14.72	12.33	9.797	11.15	28.62	78.89	204.4	 1114	 1867	437.5	5.297	-0.459	-1.083	-1.289	-0.832	-1.501	-1.397	-1.555	-1.719	-1.713	-1.386	-1.434	-1.816	-1.414	-1.537	-2.060	-1.587	-1.706	-2.054	-2.062	-1.901	-2.160	-1.673
485.0	-94.10	-75.66	-22.35	103.1	 1053	 1553	230.9	233.7	248.3	259.4	267.4	281.0	255.0	242.1	217.9	197.1	171.9	164.3	160.2	163.6	156.2	150.4	151.7	153.6	151.9	158.8	156.8	160.1	157.0	158.7	150.8	141.3	129.3	118.6	104.2	92.70	80.91	70.08	69.59	72.63	53.75	36.09	26.57	21.50	15.76	12.84	10.65	7.602	11.22	21.30	48.71	294.9	 1374	 1599	86.62	0.687	-0.800	-1.248	-0.904	-1.423	-1.589	-1.488	-1.349	-1.675	-1.631	-1.974	-1.737	-1.492	-2.073	-2.000	-1.492	-1.503	-1.750	-2.231	-1.898	-1.575	-1.748
490.0	-110.2	-65.65	-26.94	44.13	392.7	 1757	890.7	195.9	218.6	244.0	245.3	249.4	233.5	220.1	192.1	176.2	152.2	155.6	142.7	144.2	136.5	139.4	138.3	137.8	138.8	142.3	142.4	143.7	141.2	144.3	141.7	131.8	120.2	111.5	98.24	85.33	75.79	65.42	59.28	58.35	57.94	43.15	28.19	20.03	16.87	13.28	11.13	8.023	7.721	8.856	13.47	67.85	360.0	 1086	 1155	392.9	21.48	-0.817	-0.693	-1.334	-1.232	-1.187	-1.521	-1.376	-1.304	-2.140	-1.457	-1.574	-1.912	-1.521	-1.799	-1.690	-1.691	-1.934	-1.830	-2.334	-2.250
495.0	-118.2	-33.56	-14.19	30.80	134.7	881.1	 1977	314.7	187.6	206.6	231.3	228.3	221.5	196.9	167.7	152.3	135.5	139.1	124.3	126.1	123.6	124.1	121.3	118.9	126.8	129.4	126.6	128.1	126.7	123.9	124.3	117.8	109.8	101.8	92.82	79.89	69.38	59.50	54.22	47.85	49.51	50.04	33.12	20.48	17.72	12.68	11.78	9.644	7.588	5.236	6.692	17.17	81.46	247.8	685.0	 1697	586.1	15.67	-0.693	-1.427	-1.135	-1.623	-1.136	-1.537	-1.674	-2.136	-1.465	-1.819	-1.579	-1.782	-2.087	-1.686	-1.951	-1.595	-2.214	-2.295	-2.112
500.0	-134.8	-55.81	-4.364	14.37	88.07	325.5	 2095	914.8	173.9	197.7	201.4	210.4	189.9	174.1	156.6	131.2	130.3	123.6	120.0	114.2	113.1	109.1	105.3	112.7	110.9	115.9	116.0	112.3	113.9	116.9	114.2	110.7	100.8	90.45	85.90	74.12	64.78	57.04	48.91	43.83	41.66	46.26	38.04	23.01	19.09	12.97	11.87	10.34	8.380	6.033	4.581	6.137	20.11	56.66	171.3	 1053	 1715	105.2	4.512	-1.010	-0.777	-1.899	-1.464	-1.285	-1.840	-1.812	-1.642	-2.117	-2.129	-1.577	-1.787	-1.906	-1.937	-1.735	-2.095	-2.008	-2.138
505.0	-134.9	-78.96	-29.29	32.30	63.08	138.7	 1353	 1920	199.7	180.1	184.6	188.8	171.6	162.6	143.3	127.8	116.6	108.4	108.0	104.7	94.99	102.5	95.86	98.08	96.85	102.4	98.85	101.3	103.1	102.9	104.7	99.89	94.76	79.82	77.11	68.32	60.90	54.37	44.57	40.56	37.43	36.00	39.99	28.44	18.47	12.74	12.37	9.659	7.721	6.617	4.991	4.323	6.358	13.38	39.38	282.5	 1309	 1420	88.41	0.409	-0.838	-1.535	-1.521	-1.468	-1.624	-1.491	-1.842	-1.765	-1.814	-1.946	-2.229	-2.038	-1.486	-1.915	-2.264	-1.781	-2.126
510.0	-140.6	-91.99	-44.69	16.82	49.12	74.03	447.9	 2182	990.5	156.0	153.9	155.4	155.2	141.1	124.6	110.0	106.7	95.33	94.29	88.43	82.51	85.49	85.62	86.08	84.77	88.45	87.18	89.38	90.47	88.46	91.11	86.32	81.80	70.22	66.45	59.78	55.97	48.55	43.05	36.05	32.42	28.51	31.37	30.08	21.66	14.33	10.96	9.147	7.647	6.381	5.209	3.723	3.174	4.049	10.05	63.82	348.6	 1012	 1048	355.4	17.27	-1.236	-1.487	-1.651	-1.685	-1.931	-2.029	-1.970	-1.705	-1.634	-2.064	-1.794	-2.010	-2.043	-1.945	-2.097	-2.282
515.0	-127.5	-118.1	-46.69	3.687	37.61	39.51	139.6	 1063	 2321	267.9	132.5	145.5	129.4	118.5	112.2	94.06	83.72	81.18	73.35	72.95	73.00	72.58	70.10	76.76	72.07	74.88	76.42	77.18	77.70	78.36	77.34	73.68	68.61	62.50	57.45	52.53	47.58	42.79	36.93	32.14	27.86	24.71	24.50	26.24	27.32	17.12	11.07	9.255	7.441	5.659	4.486	3.134	3.290	1.977	3.309	14.91	78.23	229.2	589.6	 1346	479.1	9.742	-1.451	-1.964	-1.797	-1.923	-2.074	-2.020	-1.957	-1.781	-2.089	-2.295	-2.196	-2.331	-1.994	-2.363	-2.140
520.0	-135.4	-118.6	-61.35	-15.41	44.86	43.44	80.84	352.5	 2356	881.0	124.0	114.6	128.4	101.8	102.5	85.48	71.90	71.20	69.91	66.22	63.91	64.08	63.91	68.01	65.48	68.36	66.94	70.36	68.90	71.20	69.42	67.72	64.04	56.83	51.64	47.48	41.63	37.35	34.33	30.16	25.62	22.95	20.22	19.90	24.82	19.28	12.27	9.422	7.224	5.729	4.527	2.781	2.613	1.084	1.566	4.416	17.45	51.24	145.9	847.8	 1263	98.64	1.392	-1.536	-1.916	-2.038	-2.329	-1.869	-1.809	-2.174	-1.959	-1.969	-2.316	-2.428	-1.247	-2.315	-1.863
525.0	-129.6	-106.9	-78.64	-29.15	34.81	50.18	54.79	128.9	 1469	 1726	147.0	105.5	111.7	95.04	83.20	71.61	68.31	64.83	60.47	57.11	56.88	57.33	56.81	56.03	54.73	61.95	58.08	59.90	63.03	62.38	59.84	56.33	55.45	52.08	46.74	42.20	38.45	34.68	30.82	27.16	24.90	20.06	18.25	16.00	20.32	19.68	14.90	9.893	7.519	5.036	3.715	2.778	2.918	1.341	1.230	1.441	3.908	11.01	32.40	229.3	962.5	807.8	76.48	-0.790	-2.081	-2.400	-1.930	-2.327	-1.641	-1.949	-1.932	-2.281	-1.900	-2.259	-1.949	-1.973	-1.701
530.0	-138.0	-118.0	-76.84	-41.48	-0.905	51.93	42.13	62.81	475.8	 2097	853.7	88.57	87.36	82.99	69.00	60.11	58.73	56.15	49.03	48.26	46.32	48.28	47.47	47.91	49.94	49.24	49.92	50.33	52.79	51.43	50.62	48.56	45.89	43.04	40.20	36.63	32.66	30.09	26.55	23.36	21.89	17.75	15.20	14.36	13.86	15.86	17.85	11.45	6.846	5.078	3.725	2.690	1.998	1.072	1.367	1.035	0.992	2.448	7.249	51.47	254.5	664.4	795.6	273.6	10.46	-2.114	-1.652	-2.441	-1.656	-2.301	-1.931	-2.356	-2.389	-2.214	-2.384	-1.972	-2.498
535.0	-141.8	-120.4	-95.67	-61.25	-23.06	40.43	38.27	45.21	134.6	934.7	 2147	200.6	73.11	70.05	57.31	49.47	44.03	48.50	41.11	41.20	37.78	38.27	39.46	39.00	42.32	41.89	44.09	43.81	43.41	41.81	41.56	39.97	38.60	35.69	33.51	31.42	26.30	25.71	23.10	21.12	17.43	15.26	12.81	11.26	10.35	11.57	14.75	14.03	6.912	4.905	3.147	2.311	1.771	0.703	1.727	0.915	0.321	0.620	1.180	11.41	55.87	150.3	425.2	932.4	105.9	6.564	-1.748	-2.148	-1.859	-2.418	-2.141	-2.603	-2.671	-2.171	-2.625	-2.304	-2.133
540.0	-137.8	-140.8	-89.86	-62.67	-33.90	18.83	38.77	30.83	59.23	284.8	 2179	772.1	63.88	58.20	42.61	39.55	42.77	36.69	36.94	34.54	35.09	36.03	33.16	36.68	36.99	35.31	37.64	37.28	34.43	37.39	36.99	34.52	31.21	31.50	29.29	26.43	24.68	22.10	21.54	17.34	15.24	14.03	11.96	9.686	8.346	9.056	10.12	13.89	9.590	5.476	4.087	1.548	1.275	0.759	1.054	0.333	0.128	-0.193	0.010	2.367	12.37	32.62	104.6	565.2	803.5	92.05	0.290	-1.803	-1.835	-2.237	-2.511	-2.581	-2.065	-2.270	-2.696	-2.558	-2.135
545.0	-141.9	-138.0	-100.4	-72.52	-41.37	-0.399	45.62	31.95	40.18	88.42	 1274	 1695	78.61	48.44	37.67	35.33	35.75	34.28	31.55	32.82	28.88	30.51	29.25	31.03	29.77	31.19	30.99	31.29	31.36	31.44	32.58	30.92	29.59	28.64	25.16	23.95	21.29	19.48	17.75	16.59	13.47	12.37	10.32	8.433	7.851	7.239	7.619	10.47	9.718	6.189	3.849	2.080	1.105	0.622	1.561	0.016	0.238	0.032	-0.111	0.593	2.082	6.596	22.11	152.6	649.5	663.4	63.61	-1.289	-2.124	-1.767	-2.744	-2.446	-2.334	-2.456	-2.483	-2.227	-2.219
550.0	-172.2	-139.3	-108.3	-64.20	-48.35	-15.72	37.87	38.08	27.07	43.11	378.7	 1888	696.4	40.73	31.74	29.89	27.53	27.25	23.96	23.44	21.74	23.10	22.82	23.31	24.49	21.98	23.99	25.71	24.68	25.98	27.02	23.97	23.99	23.74	20.68	20.45	17.03	14.95	14.50	12.94	11.26	10.28	8.282	7.377	6.558	5.997	5.708	6.330	7.922	7.425	4.236	1.566	0.873	0.637	0.541	0.104	-0.090	-0.327	-0.636	-0.197	-0.189	0.553	4.075	32.83	169.3	461.3	538.4	183.4	6.329	-1.507	-2.196	-2.449	-2.253	-2.595	-2.723	-2.214	-2.539
555.0	-159.9	-142.8	-99.95	-73.22	-41.99	-28.11	-0.569	40.66	17.37	23.93	102.6	778.8	 1927	140.2	26.20	23.25	20.30	21.19	19.19	16.40	17.30	16.70	17.97	18.04	17.02	17.79	18.67	19.09	18.00	20.68	20.71	17.87	19.05	18.05	16.67	14.92	12.48	11.81	10.64	10.62	9.419	7.198	5.896	5.611	4.716	4.838	3.996	3.397	4.709	6.209	5.123	2.355	0.511	0.565	0.104	-0.312	-0.121	-0.663	-0.392	-1.186	-0.928	-0.766	-0.049	6.037	36.42	103.0	265.0	580.2	102.1	3.024	-2.222	-2.359	-2.037	-2.267	-2.560	-2.130	-2.475
560.0	-141.1	-147.6	-107.1	-80.62	-46.57	-46.76	-14.58	26.28	30.85	14.57	30.84	223.8	 1893	633.1	19.40	16.30	16.34	16.44	13.34	12.68	14.94	13.51	14.04	13.20	12.93	13.64	16.00	15.04	15.73	16.79	16.02	14.46	15.45	12.79	14.46	12.65	10.92	10.11	8.102	7.944	6.417	5.898	5.133	4.026	3.940	3.702	3.123	2.592	3.058	3.885	5.356	2.165	0.535	-0.178	-0.127	-0.443	-0.337	-0.345	-0.506	-0.781	-1.052	-0.770	-0.730	0.215	6.777	22.12	62.65	334.0	487.4	79.20	-0.836	-2.194	-2.076	-2.414	-2.224	-2.302	-2.346
565.0	-138.6	-112.2	-98.17	-60.17	-54.61	-44.28	-30.40	-0.172	35.26	11.53	10.05	62.40	 1073	 1479	36.91	13.47	12.35	15.06	11.68	11.14	12.61	10.10	13.28	9.325	9.345	11.00	11.52	12.43	11.79	12.90	11.57	12.06	11.68	10.54	10.84	9.541	7.878	7.643	6.599	6.673	5.085	4.338	3.749	3.611	2.848	2.658	2.884	2.015	2.129	2.394	4.184	2.991	0.924	-0.195	-0.258	-0.349	-0.876	-0.911	-1.066	-0.926	-1.088	-1.128	-0.902	-1.118	0.176	3.496	12.74	87.76	369.9	390.5	48.64	-1.747	-2.237	-2.250	-2.426	-2.585	-2.712
570.0	-154.4	-127.5	-88.58	-74.91	-55.78	-44.50	-35.54	-12.64	40.28	19.00	5.704	23.82	303.3	 1692	507.9	9.937	10.09	5.911	5.756	6.876	7.666	6.099	8.376	7.411	7.973	7.178	9.640	9.239	7.697	9.663	9.348	8.597	8.151	7.785	7.328	7.062	6.017	5.644	5.415	5.044	3.797	3.047	2.621	1.734	1.785	1.168	1.628	1.734	1.192	1.367	1.915	2.299	1.034	-0.109	-0.461	-1.084	-0.854	-0.814	-1.196	-1.116	-1.360	-1.144	-1.343	-1.769	-1.038	-0.280	1.333	18.05	96.04	257.9	306.3	60.57	1.740	-2.111	-2.737	-2.197	-2.542
575.0	-162.2	-147.6	-111.5	-75.15	-68.75	-39.82	-42.50	-30.69	12.33	31.40	3.712	13.07	78.61	682.5	 1620	98.12	6.723	2.869	3.301	3.718	4.346	5.010	6.195	4.808	5.112	5.077	4.835	5.474	5.048	5.918	6.630	6.024	5.616	5.960	4.738	3.901	4.316	4.326	3.125	2.735	2.000	1.981	1.924	0.657	0.572	0.449	1.107	1.135	0.703	0.755	0.457	0.999	1.112	0.234	-0.303	-0.768	-1.011	-1.437	-1.192	-1.520	-1.274	-0.982	-1.266	-1.515	-1.637	-1.447	-1.184	2.349	19.92	56.67	148.4	309.5	85.24	0.249	-2.299	-2.171	-2.607
580.0	-177.9	-140.7	-110.3	-95.13	-74.36	-42.59	-35.22	-30.93	1.089	35.34	12.01	7.146	19.80	178.4	 1666	507.7	2.126	-0.014	2.883	1.704	1.243	2.043	2.452	3.835	4.107	3.723	4.092	3.809	4.615	3.281	4.282	4.400	5.113	4.385	2.411	2.433	2.505	2.341	2.459	1.547	1.068	0.974	0.204	0.828	0.452	0.155	0.453	0.049	-0.078	0.333	-0.156	0.174	0.926	0.672	-0.697	-1.205	-1.090	-1.027	-1.376	-1.569	-1.497	-1.648	-1.261	-1.849	-1.717	-1.859	-2.114	-1.300	2.809	11.26	34.50	181.3	279.1	59.69	-1.186	-2.672	-2.822
585.0	-132.7	-120.8	-122.8	-94.24	-63.60	-50.77	-38.81	-30.32	-12.63	27.26	27.40	0.831	9.318	42.89	916.0	 1233	21.91	-0.315	3.048	1.798	1.387	1.483	0.519	1.947	1.750	3.276	2.659	2.502	2.268	2.168	2.329	3.393	3.942	3.329	2.324	2.480	2.081	2.653	2.095	1.425	1.472	0.481	-0.342	-0.073	-0.075	-0.337	-0.073	-0.337	-0.440	-0.221	-0.319	-1.011	0.056	-0.010	-0.237	-1.247	-1.432	-1.110	-1.368	-1.743	-2.263	-1.631	-1.786	-2.095	-2.039	-1.562	-2.027	-1.685	-1.341	1.002	6.287	45.79	208.3	224.3	27.47	-1.995	-2.263
590.0	-145.9	-145.1	-110.7	-83.09	-70.02	-53.19	-34.76	-29.52	-20.20	-1.409	38.21	11.03	5.016	16.63	247.6	 1278	390.3	-0.689	0.253	-0.871	0.300	-0.590	-0.048	-0.116	0.084	0.544	1.072	1.269	1.352	1.084	1.793	1.233	2.180	2.140	0.702	1.251	0.597	1.394	1.155	0.789	0.214	-0.046	-0.506	-0.335	-0.143	-0.437	-0.366	-0.724	-0.704	-0.621	-0.437	-1.087	-0.931	-0.563	-0.654	-0.893	-1.345	-1.629	-1.798	-1.642	-2.037	-1.655	-1.617	-2.025	-2.055	-1.842	-1.966	-2.015	-1.834	-1.294	-0.364	8.825	52.81	144.8	146.6	48.66	-0.194
595.0	-156.7	-122.1	-124.6	-82.25	-79.16	-40.73	-38.62	-31.82	-17.86	-3.358	36.40	24.22	8.922	2.685	57.43	481.1	 1199	71.00	-3.213	-2.717	-2.184	-2.607	-0.217	-0.844	-1.811	-1.147	0.437	0.276	0.860	-0.912	0.537	0.222	0.676	-0.118	-0.597	0.333	0.327	-0.409	-0.683	0.319	-1.081	-1.075	-1.064	-0.809	-1.061	-1.006	-0.896	-0.632	-1.063	-0.773	-0.587	-1.268	-1.432	-1.180	-1.071	-1.046	-0.933	-1.321	-1.638	-1.986	-1.887	-2.012	-2.120	-1.837	-1.999	-1.480	-2.135	-1.946	-1.989	-1.949	-1.706	-0.232	10.12	30.74	75.61	180.0	65.47
600.0	-131.4	-126.7	-112.8	-93.52	-64.84	-48.44	-38.05	-35.95	-22.12	-6.490	22.50	39.22	10.82	0.083	15.18	118.1	 1137	384.7	-3.549	-3.641	-2.159	-3.435	-2.333	-2.829	-2.055	-0.419	-1.232	-1.223	-1.378	-0.956	-0.775	-0.558	-1.006	-0.005	-0.790	0.341	-0.629	-0.561	-1.247	-0.993	-1.026	-1.585	-1.279	-1.917	-1.291	-1.254	-0.757	-1.036	-0.904	-0.776	-0.552	-1.313	-1.655	-1.718	-1.267	-1.459	-0.898	-1.127	-1.989	-1.635	-1.601	-1.783	-2.002	-1.737	-2.090	-1.509	-2.099	-2.146	-2.378	-1.671	-1.983	-1.696	0.624	4.914	16.70	102.7	165.0
605.0	-175.3	-130.1	-106.7	-93.14	-72.61	-52.28	-41.63	-28.99	-23.30	-6.646	5.568	39.87	20.98	4.806	2.606	24.71	586.5	904.7	15.23	-5.492	-4.132	-2.206	-2.364	-2.127	-2.792	-2.114	-2.206	-1.628	-1.090	-2.720	-1.664	-1.195	0.094	-0.668	-0.314	-0.159	-0.195	-1.389	-1.336	-0.980	-1.213	-1.295	-1.677	-1.853	-1.563	-1.853	-1.203	-1.690	-1.144	-1.211	-0.691	-1.659	-1.765	-1.613	-1.939	-1.081	-0.867	-1.204	-2.053	-1.770	-1.769	-1.970	-1.610	-2.103	-1.808	-2.014	-1.787	-2.295	-2.357	-2.117	-1.738	-2.023	-1.725	-0.691	2.389	24.69	115.8
610.0	-157.5	-133.3	-118.9	-98.42	-73.60	-48.93	-48.11	-29.70	-27.17	-15.18	-1.963	27.11	30.75	5.906	1.753	1.513	153.3	918.7	306.0	-2.554	-5.457	-3.550	-3.700	-3.287	-2.850	-2.317	-3.348	-1.955	-2.298	-1.875	-2.169	-1.964	-0.928	-1.102	-1.155	-0.954	-1.076	-1.350	-1.350	-0.997	-1.902	-1.644	-1.836	-1.820	-1.776	-1.804	-1.489	-1.609	-1.340	-1.421	-1.317	-1.692	-1.826	-1.747	-1.659	-1.536	-1.409	-1.086	-1.468	-1.835	-2.097	-2.230	-1.929	-2.277	-1.753	-2.152	-1.886	-2.241	-2.137	-2.240	-2.283	-2.429	-2.035	-1.871	-1.279	3.836	28.22
615.0	-154.5	-137.4	-105.1	-79.84	-70.49	-51.83	-54.97	-36.12	-25.57	-15.61	-4.275	14.43	30.68	13.13	1.773	-1.208	31.03	330.1	910.1	55.41	-3.664	-3.019	-5.108	-3.860	-3.355	-3.311	-3.517	-3.053	-2.927	-2.142	-2.588	-2.054	-1.350	-1.604	-1.449	-1.531	-1.552	-1.975	-1.252	-1.211	-2.115	-1.988	-2.150	-2.101	-2.051	-2.050	-1.944	-1.655	-1.463	-1.281	-1.443	-2.011	-1.930	-2.156	-2.025	-1.899	-1.735	-1.621	-1.484	-1.489	-1.702	-2.278	-1.921	-2.157	-2.002	-2.045	-2.415	-2.286	-1.618	-2.317	-2.261	-2.424	-2.266	-1.928	-1.980	-1.129	4.549
620.0	-165.5	-127.9	-126.6	-79.22	-68.70	-68.62	-43.37	-32.65	-30.41	-14.74	-11.21	2.271	31.21	17.23	-0.752	-1.560	2.759	77.99	858.4	312.4	-4.999	-4.209	-4.483	-4.574	-4.905	-4.053	-3.736	-3.526	-3.975	-2.801	-2.310	-2.670	-2.750	-2.573	-1.928	-1.560	-1.270	-1.777	-1.582	-2.219	-2.202	-1.881	-1.869	-1.696	-2.184	-2.265	-2.170	-1.680	-1.273	-1.226	-0.935	-1.717	-1.683	-2.194	-2.122	-2.247	-1.729	-2.012	-1.523	-1.021	-1.851	-2.435	-1.961	-2.137	-1.877	-1.991	-2.259	-1.720	-1.782	-2.068	-2.571	-2.560	-2.306	-2.176	-1.984	-2.022	-1.079
625.0	-162.8	-118.3	-127.9	-93.52	-72.90	-56.78	-44.17	-47.06	-24.33	-20.92	-12.98	-2.109	19.03	27.43	-3.369	-5.142	-4.697	13.21	434.8	715.2	13.16	-5.958	-4.390	-3.434	-5.587	-4.679	-3.767	-4.516	-3.558	-3.963	-2.763	-3.171	-3.251	-2.734	-1.854	-1.944	-1.575	-2.124	-1.643	-2.257	-3.071	-2.139	-2.056	-2.446	-1.922	-1.809	-1.850	-2.209	-1.790	-1.745	-1.752	-2.220	-2.045	-1.967	-1.920	-2.374	-1.811	-2.156	-1.748	-1.308	-1.993	-2.240	-2.148	-2.156	-1.888	-2.260	-1.860	-2.020	-2.224	-2.214	-2.260	-2.113	-2.205	-1.885	-2.127	-2.691	-2.034
630.0	-156.6	-124.0	-110.5	-84.38	-73.52	-56.89	-48.85	-39.47	-22.42	-21.24	-11.20	-8.178	8.679	30.81	7.909	-3.723	-5.612	-2.943	108.8	712.5	246.9	-2.815	-5.142	-4.633	-3.417	-4.521	-4.163	-3.761	-4.080	-3.900	-3.094	-3.098	-3.096	-2.194	-2.533	-2.503	-1.769	-2.338	-2.204	-2.580	-1.921	-2.671	-2.463	-2.493	-2.291	-2.166	-1.807	-2.146	-1.687	-1.618	-1.791	-2.272	-1.672	-1.900	-1.980	-2.053	-2.372	-2.273	-2.078	-1.754	-2.157	-2.292	-2.040	-2.221	-1.996	-2.043	-2.176	-2.211	-2.355	-2.051	-2.364	-2.216	-2.466	-2.343	-2.254	-2.376	-2.585
635.0	-128.5	-138.8	-109.6	-95.93	-72.77	-57.87	-36.30	-41.03	-29.01	-16.95	-8.907	-4.629	2.446	15.79	15.54	-0.849	-4.017	-4.911	20.13	263.2	703.2	49.01	-6.344	-3.823	-5.071	-5.271	-4.367	-3.465	-4.084	-4.080	-3.834	-2.917	-2.719	-1.868	-2.917	-2.769	-1.914	-2.556	-2.150	-2.478	-2.459	-2.615	-2.451	-2.864	-2.356	-2.840	-1.802	-2.150	-1.549	-1.711	-1.863	-1.797	-2.011	-2.122	-2.461	-2.317	-2.221	-2.312	-1.960	-1.922	-1.918	-2.122	-1.609	-2.331	-2.273	-2.225	-1.995	-2.417	-2.241	-2.260	-2.033	-2.402	-2.346	-2.297	-2.256	-2.050	-2.661
640.0	-155.3	-155.0	-94.15	-67.46	-76.04	-53.42	-40.23	-45.83	-27.53	-23.26	-7.521	-5.090	-2.462	1.122	24.99	-0.233	-3.411	-5.663	0.357	61.64	680.9	253.8	-4.958	-4.285	-3.957	-4.734	-4.206	-3.461	-3.962	-4.002	-4.433	-3.153	-3.185	-1.887	-2.846	-2.640	-2.939	-2.819	-2.720	-2.269	-1.645	-2.704	-2.240	-3.027	-2.670	-2.718	-2.255	-2.431	-1.743	-1.877	-1.486	-2.254	-1.482	-2.018	-2.389	-2.236	-2.135	-2.210	-1.893	-2.159	-1.748	-2.389	-1.623	-2.103	-2.395	-2.279	-2.158	-2.608	-2.440	-2.106	-1.945	-1.998	-2.259	-2.164	-2.933	-1.864	-2.146
645.0	-146.0	-144.8	-95.11	-71.80	-63.63	-57.57	-43.27	-39.74	-23.90	-21.89	-6.000	-8.279	-6.835	0.556	17.34	4.406	-4.212	-4.698	-5.938	11.61	361.6	555.3	8.629	-4.832	-4.651	-4.078	-5.004	-4.630	-4.710	-4.281	-4.068	-3.699	-3.643	-2.943	-2.630	-2.784	-2.900	-2.962	-2.791	-2.216	-1.860	-2.755	-2.545	-2.699	-2.744	-2.629	-1.983	-2.533	-1.643	-1.556	-1.759	-2.276	-1.987	-2.271	-2.235	-2.257	-2.297	-2.032	-2.421	-2.267	-1.564	-2.038	-1.905	-1.848	-2.423	-2.182	-2.253	-2.125	-2.211	-2.148	-1.956	-2.399	-2.660	-2.127	-2.356	-2.488	-2.603
650.0	-144.1	-141.5	-103.0	-94.21	-52.05	-58.12	-42.50	-35.05	-26.83	-18.83	-16.30	-12.90	-3.314	-3.438	14.93	13.35	-5.800	-5.514	-7.654	-1.611	108.0	675.5	111.6	-4.680	-4.879	-4.293	-3.589	-4.669	-4.935	-3.993	-3.267	-3.509	-3.764	-4.045	-3.393	-2.776	-2.416	-2.211	-3.086	-2.330	-2.867	-2.339	-2.853	-2.725	-2.525	-2.181	-1.817	-1.962	-1.896	-1.813	-1.801	-2.443	-1.843	-2.469	-1.843	-1.768	-2.118	-2.067	-2.383	-2.276	-1.761	-2.623	-2.212	-1.696	-2.539	-2.360	-2.499	-2.472	-2.379	-2.502	-2.311	-2.601	-2.773	-2.050	-1.965	-2.553	-2.647
