Sample:	'1
File name:	Default_20231106_140723.FD3
Run date:	'14:01:02, 11/06/2023
Operator:	user
Comment:	'

Instrument
Model:	F-2700 FL Spectrophotometer
Serial number:	2190-003
ROM Version:	4J14000 07

Instrument parameters
Measurement type:	3-D scan
Data mode:	Fluorescence
EX  Start WL:	220.0 nm
EX  End WL:	600.0 nm
EX Sampling interval:	5.0 nm
EM  Start WL:	230.0 nm
EM  End WL:	650.0 nm
EM Sampling interval:	5.0 nm
Scan speed:	12000 nm/min
EX Slit:	5.0 nm
EM Slit:	5.0 nm
PMT Voltage:	700 V
Response:	Auto 
Corrected spectra:	Off
Contour interval:	50.000

Peak integration
Integration method:	Rectangular
Sensitivity:	1
Threshold:	1.000

Peaks
No.	ApexEX/EM(nm)	Height(Data)
1	225.0/305.0	224.8
2	225.0/510.0	211.7
3	225.0/540.0	206.1
4	225.0/630.0	184.1
5	230.0/300.0	234.4
6	230.0/500.0	214.6
7	235.0/505.0	229.9
8	235.0/535.0	176.7
9	235.0/560.0	165.2
10	235.0/615.0	134.3
11	245.0/265.0	228.1
12	245.0/525.0	188.1
13	245.0/575.0	112.2
14	245.0/635.0	111.9
15	250.0/360.0	 1414
16	250.0/540.0	157.5
17	255.0/275.0	320.5
18	255.0/550.0	143.1
19	255.0/595.0	89.85
20	260.0/285.0	401.3
21	260.0/565.0	136.6
22	260.0/620.0	70.55
23	265.0/290.0	431.3
24	265.0/580.0	123.4
25	265.0/625.0	66.34
26	270.0/240.0	57.29
27	270.0/295.0	584.9
28	270.0/590.0	108.2
29	270.0/635.0	69.53
30	275.0/305.0	707.0
31	275.0/605.0	103.0
32	280.0/310.0	680.4
33	280.0/330.0	420.9
34	280.0/615.0	87.01
35	285.0/315.0	642.0
36	285.0/400.0	440.5
37	285.0/625.0	67.04
38	290.0/320.0	614.1
39	300.0/335.0	417.4
40	305.0/340.0	456.8
41	310.0/275.0	15.29
42	310.0/345.0	396.3
43	310.0/400.0	405.9
44	315.0/355.0	351.7
45	315.0/585.0	21.71
46	320.0/360.0	391.0
47	320.0/395.0	409.6
48	325.0/365.0	380.4
49	330.0/375.0	360.1
50	335.0/305.0	10.84
51	335.0/380.0	388.7
52	335.0/605.0	13.69
53	340.0/385.0	377.8
54	345.0/280.0	7.825
55	350.0/295.0	7.924
56	350.0/400.0	335.1
57	355.0/305.0	7.986
58	355.0/405.0	323.3
59	360.0/260.0	8.238
60	360.0/625.0	9.601
61	365.0/290.0	7.025
62	365.0/415.0	276.3
63	370.0/240.0	6.444
64	370.0/285.0	6.668
65	370.0/425.0	260.5
66	380.0/335.0	6.836
67	380.0/640.0	6.687
68	400.0/295.0	5.192
69	410.0/475.0	83.65
70	415.0/355.0	4.653
71	415.0/485.0	70.69
72	425.0/260.0	4.558
73	430.0/505.0	42.76
74	435.0/365.0	5.122
75	440.0/515.0	30.39
76	445.0/385.0	4.513
77	445.0/525.0	25.78
78	450.0/530.0	20.51
79	455.0/540.0	17.68
80	485.0/360.0	5.903
81	485.0/575.0	6.405
82	495.0/600.0	4.701
83	505.0/275.0	3.741
84	530.0/290.0	4.071
85	545.0/300.0	4.387
86	550.0/305.0	4.516
87	555.0/310.0	4.438
88	570.0/315.0	4.304
89	575.0/320.0	4.634
90	580.0/445.0	4.008

Data points
	220.0	225.0	230.0	235.0	240.0	245.0	250.0	255.0	260.0	265.0	270.0	275.0	280.0	285.0	290.0	295.0	300.0	305.0	310.0	315.0	320.0	325.0	330.0	335.0	340.0	345.0	350.0	355.0	360.0	365.0	370.0	375.0	380.0	385.0	390.0	395.0	400.0	405.0	410.0	415.0	420.0	425.0	430.0	435.0	440.0	445.0	450.0	455.0	460.0	465.0	470.0	475.0	480.0	485.0	490.0	495.0	500.0	505.0	510.0	515.0	520.0	525.0	530.0	535.0	540.0	545.0	550.0	555.0	560.0	565.0	570.0	575.0	580.0	585.0	590.0	595.0	600.0
230.0	187.1	198.9	919.4	996.7	200.9	89.48	77.84	67.75	52.45	49.29	42.62	39.28	31.62	26.58	24.14	20.44	16.59	14.21	12.43	10.84	9.667	9.215	8.137	8.353	7.932	7.021	6.900	6.617	6.716	6.221	5.716	6.076	5.197	5.179	4.655	4.150	4.321	3.773	4.230	4.104	3.815	3.646	3.735	3.349	3.208	3.093	2.985	3.127	3.983	4.117	2.950	2.887	2.617	2.813	2.597	2.594	2.695	2.940	2.772	2.815	2.576	2.655	2.781	2.684	2.458	2.612	2.332	2.676	2.561	2.916	2.538	2.922	2.995	2.578	2.439	2.642	3.026
235.0	192.8	167.2	420.5	 1274	 1263	229.7	76.79	70.45	56.57	50.00	42.24	40.42	31.22	27.77	21.25	20.18	18.67	14.45	11.49	11.04	10.44	9.418	8.894	8.182	7.489	8.039	6.239	6.176	6.285	6.754	6.068	5.998	4.916	5.471	4.802	4.025	4.383	3.784	3.933	3.438	3.094	3.650	4.200	3.173	3.281	3.386	2.415	3.243	3.218	3.322	4.188	5.546	3.608	2.888	2.417	3.226	2.429	2.839	2.773	2.937	2.316	2.819	2.766	2.587	2.336	2.638	2.317	2.085	2.544	2.897	2.707	2.695	2.410	2.835	2.433	2.155	3.035
240.0	162.9	193.3	218.1	625.3	 1832	 1170	145.7	75.96	60.15	50.59	57.29	37.82	34.00	26.01	23.78	20.47	15.34	14.53	12.19	12.47	11.08	10.97	8.113	9.091	8.033	8.561	5.942	5.223	6.054	6.305	6.444	5.355	4.601	4.296	4.065	4.508	4.348	4.275	3.715	4.455	2.657	3.662	4.414	3.504	2.905	3.607	2.544	3.106	2.812	2.175	2.644	5.397	6.126	5.901	2.841	3.183	2.463	2.583	3.032	2.968	2.352	2.226	2.517	2.635	2.561	2.665	2.570	2.615	2.372	2.961	2.687	2.578	2.628	2.679	3.122	2.698	2.626
245.0	165.6	164.0	181.5	230.3	 1037	 2344	 1046	109.7	58.89	57.85	43.37	42.59	32.53	27.75	22.01	19.35	16.38	14.01	12.59	13.39	9.662	9.696	8.933	7.842	8.513	7.111	6.608	6.743	5.357	4.728	5.066	6.068	5.665	5.864	4.571	4.274	4.007	3.608	4.460	4.271	4.215	4.147	3.868	3.117	3.366	3.451	2.904	2.780	2.938	2.033	2.308	3.465	4.846	7.163	7.085	5.614	2.924	2.554	2.618	2.918	2.601	2.535	2.777	2.720	2.297	2.746	2.565	2.682	2.345	3.011	2.652	2.850	2.385	2.805	2.801	3.041	2.950
250.0	158.3	163.1	179.8	172.3	333.2	 1100	 2262	 1684	325.5	52.89	43.36	38.21	33.83	28.16	23.03	18.07	18.55	14.57	11.65	12.39	11.36	8.406	9.269	7.143	8.003	7.192	7.140	7.012	5.419	5.675	5.608	5.177	5.095	5.489	4.719	4.052	4.250	3.445	4.009	3.870	3.851	3.953	3.562	3.330	3.255	3.101	2.719	2.677	2.891	2.434	2.510	2.893	2.718	4.107	4.735	6.075	6.846	6.274	4.477	3.013	2.621	2.537	2.598	2.866	2.645	2.800	2.300	2.539	2.369	2.760	2.948	2.587	2.177	2.785	2.744	2.687	2.560
255.0	196.8	162.4	165.2	180.7	222.2	326.7	763.0	 2864	 2237	346.1	54.34	38.66	31.50	29.34	22.01	18.49	18.65	15.46	12.32	11.91	9.491	8.732	8.761	7.911	7.184	6.665	7.250	6.515	7.040	5.910	5.525	5.276	4.401	4.129	4.058	3.872	4.029	4.374	4.062	3.770	3.504	4.505	3.782	2.950	3.352	3.374	2.715	3.053	2.656	2.230	2.627	2.435	3.070	2.688	2.855	3.155	4.249	6.464	8.867	8.684	4.939	3.088	2.870	2.654	2.547	2.876	2.414	2.529	2.387	2.825	3.251	2.735	2.630	2.821	2.414	2.765	3.157
260.0	203.8	147.3	129.3	155.1	226.7	195.0	248.8	 1156	 3606	 1878	192.2	46.58	33.36	27.74	21.96	18.28	17.31	15.94	11.67	12.69	10.37	9.945	7.958	7.402	8.024	7.165	6.668	5.749	8.238	6.200	5.637	5.425	5.178	4.839	4.980	4.405	3.304	4.123	3.415	3.533	3.196	4.558	3.421	2.844	2.954	3.815	3.018	2.956	2.540	2.318	2.324	2.964	3.023	2.589	2.237	3.060	3.301	4.535	5.596	8.167	11.05	8.316	4.064	2.910	2.393	2.526	2.934	2.856	2.386	2.510	2.720	2.796	2.428	2.600	2.598	2.967	2.739
265.0	160.6	147.1	156.6	138.4	163.5	228.1	145.7	331.2	 1679	 3971	 1442	97.18	38.32	28.14	20.87	21.11	15.53	15.00	12.45	10.11	11.65	11.11	7.374	7.957	7.481	6.313	7.100	6.295	6.990	6.423	5.895	5.091	5.110	4.704	4.526	5.012	3.786	4.503	3.669	4.203	4.307	3.755	4.029	3.703	3.110	3.624	2.542	2.904	2.184	2.235	2.043	2.901	2.657	2.785	2.557	2.972	3.292	2.789	3.175	4.185	6.624	10.63	10.85	6.332	3.028	2.326	2.599	2.756	2.428	2.538	2.288	2.797	2.851	2.375	2.361	3.213	2.890
270.0	199.7	157.1	160.0	127.5	113.1	168.7	232.2	179.5	453.3	 1615	 3134	 2407	345.6	34.24	23.07	20.35	16.02	13.34	13.68	12.97	11.19	10.68	8.936	8.099	6.444	6.801	6.505	6.640	6.742	5.751	5.850	5.343	5.687	4.717	4.764	4.589	3.797	3.714	3.628	3.705	4.172	3.331	3.926	3.388	3.453	3.271	2.840	2.512	2.461	2.407	2.096	2.942	2.517	2.767	2.707	3.374	3.306	2.626	2.527	3.147	3.747	4.569	6.803	10.16	10.40	9.796	5.660	3.064	1.909	2.842	2.377	2.664	2.502	2.558	2.504	3.055	2.788
275.0	186.8	181.8	163.2	153.0	106.3	101.0	191.2	320.5	184.0	413.3	934.2	 3229	 3490	314.3	25.19	22.82	17.48	13.82	15.29	12.54	11.94	10.55	9.249	7.759	6.795	7.135	6.792	6.782	7.044	5.488	5.282	6.232	4.244	4.549	3.942	4.711	3.641	3.971	3.711	3.912	3.893	3.584	3.826	3.698	3.999	3.266	2.952	2.810	3.093	2.475	2.331	2.648	2.389	3.025	2.570	2.627	3.124	3.741	2.495	2.485	3.034	3.024	3.584	4.332	5.735	8.683	14.54	13.05	5.652	2.798	2.257	3.322	2.209	2.744	2.718	2.837	2.832
280.0	208.8	166.6	167.2	146.7	129.2	107.2	126.0	279.2	282.7	185.0	295.8	 1194	 4370	 1189	137.3	21.87	19.07	15.57	14.70	14.06	13.23	10.71	8.277	8.247	5.952	7.825	7.376	6.465	6.497	6.870	5.616	5.717	4.903	4.984	3.748	3.950	3.765	4.291	3.563	4.145	3.523	3.617	3.552	3.386	3.340	3.559	3.519	2.989	3.030	2.431	2.210	2.714	2.253	2.896	2.900	2.985	3.019	3.555	2.957	3.216	3.323	3.320	2.809	3.197	3.404	4.019	8.206	14.51	16.29	10.27	3.989	3.225	2.505	2.737	2.937	2.618	2.651
285.0	204.5	177.1	180.2	142.8	128.6	125.5	96.50	174.5	401.3	248.5	165.1	394.6	 1849	 4628	889.7	51.53	19.38	14.98	14.89	12.03	11.45	9.226	8.821	7.804	7.492	7.188	7.182	5.636	5.788	6.193	6.668	6.521	5.102	5.084	4.298	3.520	4.917	4.760	3.464	4.292	3.005	4.055	3.829	3.093	3.150	3.917	3.183	2.851	2.630	2.486	2.120	2.503	2.763	2.909	2.783	2.928	3.152	3.354	3.171	3.699	3.757	3.016	2.611	2.937	2.772	2.789	4.083	6.424	11.70	16.10	16.03	7.284	3.607	3.067	2.875	2.693	2.455
290.0	215.7	202.7	180.6	145.7	141.4	131.7	112.2	137.1	236.4	431.3	328.8	260.4	587.4	 1895	 3605	 2304	208.2	17.72	14.19	13.18	10.62	9.774	9.336	8.818	7.326	6.571	7.166	6.266	5.751	7.025	5.938	6.896	5.416	4.847	4.526	4.006	4.943	4.553	3.590	4.015	3.028	3.706	3.551	3.132	3.097	3.324	3.165	3.267	2.578	2.368	2.267	2.605	2.951	2.898	2.589	2.693	2.857	2.600	3.104	3.127	3.368	3.383	4.071	3.213	2.918	2.984	3.218	3.945	5.176	6.923	11.08	13.63	13.41	10.59	6.165	2.826	3.093
295.0	203.2	205.1	195.6	166.9	139.5	127.4	131.2	130.8	165.1	283.1	584.9	398.3	328.9	548.6	 1072	 3726	 3285	208.5	12.70	13.17	11.28	10.44	9.282	8.855	7.687	6.826	7.924	6.372	6.104	6.794	6.298	5.581	5.199	4.774	4.409	4.171	5.192	4.258	2.973	3.151	3.375	3.713	3.044	3.428	3.340	3.627	3.032	3.183	2.636	2.287	2.738	2.794	3.007	2.345	2.987	2.691	2.896	2.915	2.932	3.097	3.166	3.595	3.308	3.992	3.721	3.137	3.232	3.348	3.644	4.448	4.587	5.239	6.912	13.17	18.96	15.14	7.019
300.0	196.7	208.2	234.4	202.0	172.2	145.1	147.6	145.1	171.1	217.6	486.1	675.7	366.9	282.3	335.1	 1373	 4678	 2324	92.56	12.87	11.99	11.05	9.336	9.919	7.031	7.544	5.714	7.056	5.987	5.532	6.377	5.919	4.883	5.045	4.507	3.960	4.375	3.574	3.394	3.660	3.335	4.034	3.177	2.904	3.388	3.897	2.736	2.831	2.674	2.129	2.596	2.810	2.236	2.603	2.836	3.125	2.768	2.909	3.289	2.953	3.167	3.023	2.598	3.273	4.374	4.387	3.382	3.489	3.354	3.687	3.254	3.106	3.340	5.692	10.32	17.50	20.34
305.0	220.5	224.8	210.6	200.2	164.7	159.1	146.8	156.1	182.1	230.9	368.6	707.0	607.2	280.8	200.8	399.0	 2053	 4677	515.7	33.72	13.89	10.74	8.365	10.84	6.433	7.155	7.749	7.986	6.502	6.249	5.302	5.521	4.957	4.479	4.760	4.390	4.335	3.896	3.943	3.828	3.737	4.248	3.309	3.182	3.415	3.236	2.838	2.297	2.580	2.437	2.184	3.385	2.854	2.888	2.720	2.201	3.668	3.032	3.265	3.134	3.189	2.865	3.126	3.864	3.885	3.920	4.516	3.971	3.263	2.927	3.240	2.991	2.977	3.696	4.230	7.915	15.00
310.0	192.5	223.6	240.7	197.6	174.5	163.6	167.5	177.5	198.5	248.7	321.2	477.9	680.4	519.6	229.8	186.6	542.9	 1967	 3259	 1769	134.7	11.62	10.34	9.095	9.305	7.719	7.487	7.027	6.549	5.492	6.066	6.455	5.084	5.440	4.198	4.655	4.365	4.089	4.350	3.569	3.262	3.609	3.578	3.145	3.205	3.306	2.926	2.973	2.893	2.967	2.471	3.476	2.438	2.905	2.914	2.809	3.285	3.254	3.148	2.973	2.893	3.244	3.089	3.639	3.208	3.645	3.804	4.438	4.413	3.641	3.374	3.120	2.948	3.184	2.753	4.011	5.624
315.0	199.8	214.3	236.2	212.2	169.3	158.4	173.4	188.8	212.9	263.6	324.8	395.4	452.7	642.0	444.8	175.0	205.7	500.9	 1033	 3583	 2522	146.7	12.84	10.94	8.720	8.214	6.825	6.808	7.028	6.043	6.970	5.785	5.379	4.369	4.860	4.647	4.191	3.807	3.887	3.803	3.043	3.568	3.941	3.174	3.146	3.659	2.659	2.884	2.639	2.640	2.393	3.492	2.823	2.931	2.386	2.905	3.193	3.336	3.082	2.959	3.183	3.494	2.906	3.371	2.945	3.070	3.494	3.756	3.819	4.221	4.304	3.786	3.235	3.195	3.132	3.284	3.806
320.0	207.2	227.2	260.0	200.8	192.5	201.0	192.5	203.1	231.3	262.1	338.9	380.3	410.4	499.6	614.1	279.6	147.7	190.4	276.4	 1426	 4178	 1763	62.74	10.50	9.135	9.289	7.240	8.060	7.521	6.435	6.904	5.937	5.283	4.645	4.797	5.216	4.402	3.980	4.114	4.188	3.913	3.648	3.757	3.666	3.214	3.519	3.077	3.233	2.879	2.423	2.171	3.125	3.037	2.591	3.006	2.944	3.384	2.681	3.130	2.929	3.140	3.021	3.381	3.268	2.984	3.289	3.859	3.875	3.510	3.274	3.981	4.634	3.752	3.196	2.785	3.372	3.206
325.0	203.9	223.7	275.6	238.1	227.3	254.7	224.1	238.3	280.9	295.0	340.7	390.9	395.6	388.6	540.5	479.0	170.5	133.6	121.5	374.7	 2033	 4037	355.0	23.99	8.995	9.054	8.000	6.476	7.228	7.062	6.883	6.088	5.204	4.575	4.475	5.465	4.303	4.379	4.243	4.447	3.581	3.452	3.850	3.647	3.049	3.534	3.010	3.601	2.889	2.758	2.752	2.642	2.899	3.187	3.211	2.670	2.837	2.707	2.929	2.648	3.269	3.149	3.372	2.934	3.187	3.558	3.509	3.387	3.679	3.524	3.971	3.966	4.038	3.874	3.202	3.171	3.348
330.0	210.2	281.2	361.1	367.6	360.0	367.5	386.9	361.2	357.5	368.9	379.7	391.4	420.9	390.2	396.2	465.9	370.0	173.0	102.1	139.8	519.4	 1878	 2663	 1293	97.22	10.17	8.217	7.635	6.592	6.757	6.567	5.545	5.730	5.440	5.256	4.725	4.340	3.846	3.797	3.983	3.435	3.609	3.611	3.754	3.841	3.501	3.281	3.588	2.997	2.772	2.833	2.903	2.728	3.259	3.259	3.549	3.345	3.264	3.079	3.292	3.248	3.698	3.288	2.833	3.649	3.212	3.760	3.208	3.325	3.562	3.454	3.763	3.436	4.005	3.886	3.966	3.627
335.0	234.5	325.5	405.3	521.7	555.7	611.6	568.6	545.5	512.4	460.7	434.4	416.3	407.1	407.1	376.3	335.3	417.4	362.1	142.8	110.1	172.8	464.2	966.8	 3374	 1881	103.2	9.293	8.929	7.195	7.682	6.527	5.815	6.836	5.155	5.403	4.662	4.265	4.224	3.602	4.112	3.336	3.399	3.732	3.968	3.620	3.598	3.292	3.514	3.373	3.050	2.628	3.336	3.155	3.151	3.808	3.808	3.443	3.975	3.563	3.724	3.937	3.412	3.626	3.575	3.599	3.137	3.662	3.519	3.299	3.237	2.998	3.928	3.544	3.574	3.686	3.920	4.782
340.0	236.1	359.6	431.3	664.8	698.0	794.9	802.5	682.3	624.6	558.5	462.5	460.6	432.0	443.2	382.4	326.4	336.3	456.8	258.1	125.3	108.8	156.6	263.4	 1520	 3785	 1360	47.13	9.011	7.486	6.902	6.648	5.918	6.040	4.861	5.731	4.859	4.444	3.194	3.729	3.903	3.629	4.013	3.912	3.424	3.700	3.297	3.096	3.552	3.589	3.038	2.624	3.904	3.902	4.277	4.159	4.227	4.721	4.547	4.452	3.762	3.939	3.458	3.114	3.285	3.828	3.398	3.376	3.857	2.986	3.551	3.167	3.642	3.264	3.373	3.372	3.304	4.249
345.0	246.9	356.1	560.0	747.4	894.9	955.5	971.8	855.3	721.6	654.6	494.3	482.3	425.9	437.9	391.8	324.4	293.4	380.5	396.3	175.0	110.9	103.6	109.1	402.1	 2155	 3587	275.4	19.93	8.376	7.698	7.150	5.159	5.490	6.300	5.028	3.969	3.733	3.991	4.222	4.153	4.461	4.010	3.997	3.394	3.738	3.532	3.456	3.245	3.917	3.288	3.242	3.659	4.150	5.043	4.403	5.109	4.881	4.992	4.394	3.923	4.348	3.693	3.328	3.773	3.856	3.447	4.119	3.526	3.486	3.332	3.616	3.696	3.852	3.794	3.074	3.564	3.936
350.0	305.3	408.2	589.2	839.7	 1028	 1098	 1145	 1012	859.0	736.5	552.2	471.3	431.3	436.8	415.7	349.5	310.9	298.4	369.4	340.3	182.7	119.1	97.05	147.3	565.0	 1887	 2355	 1055	83.99	8.844	7.509	6.184	6.388	5.394	4.762	4.317	4.229	4.463	4.087	4.400	4.393	3.670	3.646	3.527	3.494	3.750	3.371	3.422	3.521	3.380	3.649	3.903	4.672	4.966	4.941	5.356	5.131	5.046	4.802	4.145	4.542	3.969	3.834	4.037	3.353	3.558	3.565	3.635	3.564	3.475	3.759	3.820	3.594	3.687	3.088	3.772	3.788
355.0	280.5	426.1	619.5	950.9	 1073	 1261	 1309	 1093	940.9	801.0	620.3	502.8	455.4	451.8	420.1	377.1	328.8	308.3	297.7	351.7	343.8	178.4	125.0	108.2	186.2	466.4	 1022	 3084	 1555	79.75	7.355	6.585	5.619	5.336	4.733	3.464	4.002	4.267	4.105	4.653	3.995	3.898	3.789	3.565	3.530	3.412	3.095	3.722	3.493	3.180	3.679	4.488	4.574	5.372	4.868	5.128	5.092	5.534	4.844	4.983	4.609	5.022	4.172	4.279	3.515	3.836	3.433	3.423	3.638	3.679	4.203	3.825	3.461	3.244	3.466	3.674	3.083
360.0	272.6	418.0	621.9	960.5	 1117	 1311	 1414	 1177	980.2	827.0	631.0	499.6	446.1	443.8	437.4	381.3	348.8	316.3	297.9	306.7	391.0	281.2	158.2	126.9	117.0	159.8	278.9	 1538	 3331	 1124	33.02	8.216	6.349	5.823	5.056	3.909	4.065	3.961	4.100	3.981	3.806	3.341	3.777	3.908	4.221	3.497	3.405	3.304	3.616	3.222	3.867	4.882	4.959	5.903	4.847	5.292	5.787	5.397	5.178	5.055	4.700	4.277	4.839	4.133	3.948	3.847	3.670	3.458	3.498	3.961	4.112	4.209	3.762	3.126	3.605	3.715	3.784
365.0	247.0	427.6	636.2	919.7	 1144	 1335	 1394	 1216	 1010	856.1	615.5	467.1	463.2	446.4	432.6	396.6	363.4	339.1	315.1	291.9	341.3	380.4	229.9	149.9	120.6	105.2	114.9	413.1	 2019	 3183	236.4	14.31	7.324	6.714	5.702	4.800	4.657	4.044	4.094	4.398	4.068	3.622	3.370	5.122	3.699	3.758	3.321	2.617	3.461	3.392	3.615	4.575	4.848	5.037	5.363	5.052	5.644	5.637	5.140	4.512	4.869	4.189	4.277	3.852	3.960	3.717	3.656	4.197	3.863	4.037	4.290	4.372	3.583	4.025	3.894	3.708	3.208
370.0	253.4	421.2	643.6	919.2	 1189	 1334	 1379	 1239	985.4	843.9	633.1	511.7	451.2	450.5	435.2	407.5	378.9	372.1	343.8	327.2	314.2	362.3	352.4	231.8	153.2	119.1	97.35	143.0	534.4	 1767	 2154	905.3	66.16	6.807	5.759	5.330	4.777	4.930	4.023	3.693	3.901	3.957	3.856	4.550	3.980	3.824	3.825	3.718	3.243	3.240	3.880	4.400	4.759	5.363	5.204	5.381	4.937	5.478	4.984	4.402	4.871	4.549	4.054	4.255	3.631	3.545	3.600	3.850	3.696	3.775	3.929	3.774	3.883	3.507	4.070	3.877	3.312
375.0	303.2	393.8	597.1	813.4	 1120	 1269	 1328	 1141	975.0	810.8	618.1	505.6	447.7	455.2	445.5	406.7	397.3	388.3	366.1	356.3	323.1	322.6	360.1	355.4	219.8	145.8	115.3	104.5	168.7	432.1	982.0	 2876	 1301	68.17	6.765	5.431	4.468	4.049	4.541	3.085	3.949	3.891	3.282	4.717	3.413	3.186	3.598	3.848	3.482	3.412	3.782	4.746	4.490	5.470	5.235	5.192	5.356	4.971	5.285	4.774	4.372	5.234	4.357	4.661	3.798	4.180	3.859	3.887	3.865	3.463	3.552	3.761	3.895	4.157	3.808	3.411	3.839
380.0	291.1	402.7	564.0	786.3	 1045	 1164	 1257	 1082	874.1	791.5	595.5	487.5	469.9	455.8	453.0	425.7	402.4	392.2	389.3	368.8	349.7	335.7	336.6	388.7	311.6	185.3	138.9	108.6	97.53	141.5	258.8	 1493	 2992	935.9	27.83	5.868	5.295	4.470	3.935	3.765	4.118	3.646	3.838	4.697	2.866	3.699	3.291	3.464	3.470	3.475	3.443	4.458	5.009	4.634	5.115	5.244	4.991	4.734	5.096	4.427	4.382	3.983	3.960	3.943	4.038	3.710	3.580	3.935	3.563	3.778	3.741	3.806	3.895	3.537	3.838	3.298	3.750
385.0	248.6	390.3	538.2	769.1	984.2	 1112	 1152	 1076	883.4	776.0	603.4	492.5	448.6	455.8	438.5	419.1	404.6	400.2	399.3	387.7	372.3	351.4	332.8	348.7	377.8	245.4	161.6	126.3	101.1	84.84	97.69	396.3	 1892	 2714	184.7	11.09	6.055	4.913	4.257	4.353	3.691	3.883	4.680	4.063	3.498	4.513	3.396	3.331	3.375	3.576	3.475	4.719	4.648	4.944	4.780	5.151	4.713	4.748	4.598	4.475	4.401	4.092	4.270	3.661	4.051	3.292	3.444	3.495	4.066	3.894	3.598	3.451	3.714	3.770	3.606	3.854	4.164
390.0	255.3	344.3	515.0	753.6	875.0	 1051	 1032	950.6	787.9	701.0	561.3	473.2	438.5	441.9	437.3	415.5	415.4	402.2	404.0	394.6	393.3	359.3	347.3	333.3	347.7	340.2	229.0	159.0	121.7	93.23	78.75	126.0	500.9	 1525	 1721	689.4	54.41	5.861	5.103	4.837	3.520	4.147	3.727	3.796	3.455	4.002	3.853	3.320	3.475	3.112	3.450	4.411	4.086	4.889	5.125	4.909	4.723	5.079	4.554	4.293	4.419	4.848	4.142	3.402	3.450	3.206	3.472	3.390	3.653	3.575	3.592	3.455	3.636	4.014	3.676	4.030	3.802
395.0	239.0	306.0	497.3	680.2	798.3	915.1	926.3	887.8	730.7	688.8	510.6	452.0	430.8	436.1	438.1	410.9	402.8	395.5	401.9	404.8	409.6	379.8	367.6	341.8	318.3	333.0	321.1	217.6	151.5	115.2	89.17	84.85	149.7	369.7	807.0	 2259	 1027	57.48	5.596	5.106	4.573	4.025	3.802	3.263	4.096	3.746	3.695	3.367	3.261	3.185	3.258	3.823	3.828	4.653	4.845	4.802	4.609	5.196	4.318	4.160	4.100	4.457	3.927	3.456	3.344	3.528	3.988	3.772	4.116	3.505	3.366	3.111	4.503	3.701	3.905	4.361	3.826
400.0	244.4	332.7	451.7	598.2	694.8	838.9	884.4	818.4	691.5	634.7	492.6	442.2	425.8	440.5	419.7	402.1	406.3	401.7	405.9	405.7	405.3	383.5	366.1	349.9	328.4	311.8	335.1	288.8	181.3	139.4	108.5	81.96	83.11	115.8	212.7	 1147	 2317	760.5	24.62	5.575	4.514	5.052	3.563	3.125	3.545	3.187	3.509	3.385	3.341	2.966	2.852	3.977	3.673	4.375	4.126	4.214	4.417	4.422	4.589	3.981	3.650	4.179	3.779	3.606	3.193	3.509	4.204	3.532	3.482	3.834	3.718	3.210	3.811	3.515	3.409	4.013	3.464
405.0	236.1	273.4	438.6	583.2	684.5	760.4	791.2	711.5	651.5	586.6	496.6	448.6	415.7	421.5	414.7	400.0	389.4	390.3	396.4	393.8	407.2	389.3	372.8	354.4	327.3	301.9	310.5	323.3	237.8	161.9	127.7	95.56	76.16	66.14	76.12	302.8	 1405	 2139	155.9	10.28	4.874	4.413	3.359	3.180	3.168	3.543	3.287	3.599	3.056	2.947	2.880	3.366	4.585	4.515	3.969	3.754	4.846	4.206	4.131	4.310	3.962	4.193	3.390	3.794	3.772	2.828	3.942	3.178	3.577	3.146	3.998	3.270	3.408	3.800	3.458	3.502	3.428
410.0	261.3	323.9	381.7	518.3	644.7	697.2	715.1	636.2	610.0	544.4	474.4	434.1	426.5	404.0	410.5	393.7	380.3	382.3	380.9	384.9	396.4	387.3	374.2	359.7	338.5	309.2	293.1	296.8	296.5	221.5	151.6	115.1	89.94	66.26	53.80	94.57	365.7	 1158	 1344	609.1	47.18	5.079	3.929	3.802	3.939	3.357	3.571	3.304	3.533	2.636	2.963	3.549	3.623	4.464	4.103	4.040	4.337	4.113	4.170	3.613	3.703	4.279	3.801	3.779	3.554	3.130	3.716	3.359	3.387	3.456	3.548	3.666	3.473	3.433	3.898	3.647	3.641
415.0	215.0	265.6	371.6	454.2	570.2	631.0	634.6	608.1	547.7	493.0	429.9	432.7	409.0	405.5	390.9	381.6	364.2	359.7	366.9	377.3	377.8	362.6	363.2	346.7	345.1	312.3	290.1	275.1	275.0	276.3	196.0	132.9	103.9	77.49	57.45	55.30	107.2	276.8	572.1	 1654	872.6	50.39	4.906	4.032	3.454	3.744	3.782	3.049	3.137	2.662	3.242	3.675	3.603	3.938	3.685	3.879	3.656	3.651	3.702	3.912	3.400	3.636	3.739	4.147	3.310	3.436	3.731	3.689	3.975	3.318	3.269	3.451	3.240	3.377	3.849	3.715	3.626
420.0	232.1	279.1	330.2	403.1	514.6	582.2	568.9	560.6	518.4	479.2	439.2	419.8	398.2	401.8	386.4	360.9	337.5	356.4	358.8	357.8	359.0	360.6	350.5	350.7	331.4	313.8	285.0	271.9	259.2	271.5	237.5	155.5	115.4	87.19	64.48	51.08	52.26	81.50	149.2	802.9	 1754	629.8	20.62	4.826	3.581	4.268	4.009	3.371	3.259	2.695	2.666	3.620	3.409	3.991	4.077	3.738	3.875	3.783	3.587	3.627	3.655	3.857	3.634	3.587	3.666	3.547	3.749	3.270	3.144	3.314	3.418	2.890	3.458	3.616	3.713	3.100	3.706
425.0	243.5	252.6	363.4	402.1	524.8	566.2	537.9	531.6	494.4	463.8	437.7	411.5	385.7	387.0	373.8	339.9	327.8	332.3	344.8	337.6	350.0	350.2	341.5	330.4	317.5	311.1	289.3	267.6	247.0	241.5	260.5	190.0	129.7	93.24	71.75	54.46	44.19	42.44	50.74	207.7	 1004	 1600	142.2	9.100	4.132	4.442	3.359	3.519	2.628	2.938	2.805	3.721	3.951	3.872	4.350	3.830	3.568	3.569	3.730	3.426	3.209	3.337	3.805	3.225	3.622	3.411	3.658	3.153	3.742	3.292	3.598	3.053	3.975	3.369	3.808	3.511	3.719
430.0	247.4	250.1	338.9	394.6	484.5	500.2	517.1	486.6	459.5	444.0	420.8	401.5	382.9	363.2	348.6	324.6	318.3	315.0	326.5	322.7	331.7	329.8	330.7	323.1	315.8	301.1	287.5	264.9	247.6	231.3	232.2	224.2	167.9	111.6	83.55	67.19	51.52	39.55	33.17	62.90	255.8	826.5	 1106	526.5	42.92	4.351	3.558	3.441	2.960	2.945	2.823	3.250	3.801	3.652	3.358	3.825	3.770	3.525	3.540	3.469	3.691	3.741	3.802	3.360	3.284	3.507	3.312	3.053	3.685	3.190	3.201	3.528	3.206	3.813	3.886	3.554	3.620
435.0	261.7	277.2	315.9	385.2	413.4	461.1	461.5	439.5	469.0	450.8	414.6	399.4	374.7	363.0	350.3	318.6	300.1	301.2	305.7	308.1	306.8	311.1	313.7	307.1	299.0	304.1	275.3	272.0	258.1	234.8	211.9	211.3	207.4	142.2	97.62	74.28	59.11	46.80	34.94	34.30	72.01	197.2	460.2	 1350	787.8	48.46	4.521	3.531	3.049	3.012	2.976	3.346	3.483	3.877	4.056	3.563	3.692	3.363	3.487	2.855	4.111	3.257	3.733	3.822	3.676	3.521	3.659	2.706	2.992	3.361	4.006	3.638	2.978	3.696	3.681	3.506	3.867
440.0	308.4	269.8	299.0	345.7	394.2	436.0	474.5	438.2	444.7	422.2	410.2	380.2	376.9	350.1	337.7	311.8	292.3	292.6	298.7	298.2	294.5	301.8	299.3	304.0	294.2	289.9	275.2	269.1	251.8	230.5	212.0	197.5	200.2	174.6	117.4	81.08	66.03	51.96	38.12	30.47	34.37	57.84	117.3	664.2	 1494	582.8	18.66	4.001	3.683	2.870	2.924	3.115	3.007	3.653	3.771	3.494	3.620	3.614	3.958	3.269	4.176	3.457	3.611	3.255	3.074	3.166	3.723	3.403	2.864	3.458	4.101	3.034	3.821	3.505	3.546	3.540	3.349
445.0	261.3	331.1	319.1	372.6	373.7	422.8	446.1	410.7	419.8	404.2	392.5	381.0	361.8	327.6	330.7	296.3	284.1	290.1	281.6	285.8	285.2	288.0	282.4	287.6	285.5	276.6	273.1	267.3	247.7	232.3	211.8	196.8	178.3	183.9	140.6	86.72	69.70	55.76	43.64	35.16	27.38	29.21	38.73	171.9	864.5	 1443	116.5	8.893	3.927	2.748	2.858	3.442	3.157	3.495	3.525	3.757	3.423	3.726	3.823	3.512	3.607	3.183	3.389	3.002	3.276	3.834	3.769	3.543	3.070	3.754	3.515	3.431	4.008	3.777	2.871	3.698	3.916
450.0	245.8	390.1	360.9	318.9	360.3	403.7	402.9	410.4	401.9	391.4	371.9	362.9	350.9	325.4	311.6	287.2	264.6	269.7	263.1	264.0	267.7	271.1	271.7	269.0	270.0	263.5	260.4	251.0	239.7	227.3	206.7	188.6	164.3	159.3	154.1	114.0	79.99	61.82	48.78	39.01	30.19	25.51	23.46	49.53	219.5	757.3	962.6	464.2	36.09	3.458	3.197	3.164	3.253	3.705	2.974	3.526	3.462	3.179	3.616	3.931	3.341	3.419	3.352	3.307	3.391	3.477	3.333	3.482	3.435	3.302	3.357	3.469	3.847	3.818	3.301	3.542	3.243
455.0	242.0	354.9	664.4	311.2	323.6	352.6	381.0	378.5	402.4	358.5	360.2	358.0	326.2	306.8	280.4	262.4	248.1	248.3	243.4	247.6	240.2	241.8	245.9	246.2	246.6	241.9	243.2	229.9	229.9	215.0	201.8	185.6	162.0	139.0	138.4	134.7	97.02	68.45	53.14	44.94	35.94	27.87	21.85	24.47	59.74	177.7	394.4	 1248	649.5	34.82	3.476	3.524	3.736	3.197	3.327	3.486	3.741	2.858	3.374	3.813	3.492	3.218	3.590	3.639	3.242	3.214	4.156	3.560	2.790	3.050	2.962	3.287	3.391	3.396	3.528	3.192	3.622
460.0	230.0	274.3	693.0	487.5	331.6	332.0	361.6	379.2	380.3	339.8	335.7	349.2	312.8	290.2	271.1	253.9	231.0	222.5	231.0	230.0	219.3	227.3	228.3	232.9	235.1	231.1	227.5	216.9	218.1	205.6	195.5	178.2	158.6	134.5	125.0	128.6	116.8	74.27	56.83	44.28	37.24	29.10	23.44	21.21	23.91	49.96	99.03	604.8	 1287	429.4	15.49	3.761	3.361	3.661	3.644	3.629	3.665	3.216	3.210	3.306	3.155	3.472	3.193	3.166	3.268	3.283	3.642	3.077	3.192	3.487	3.409	3.184	3.237	3.633	3.796	3.633	4.071
465.0	246.7	242.2	605.3	773.2	328.7	315.6	355.6	358.1	347.2	332.7	330.6	322.9	301.0	276.0	257.6	245.1	210.8	218.1	210.6	209.5	212.0	207.0	213.4	211.7	215.9	216.5	217.9	207.1	203.1	193.8	184.6	168.2	152.9	132.2	114.4	111.1	116.4	90.48	61.48	46.32	37.95	31.02	25.38	20.71	18.20	20.62	30.24	154.8	752.2	 1145	92.48	6.782	3.636	3.640	3.576	3.421	3.681	4.081	3.118	3.399	3.479	3.214	3.330	3.251	2.539	3.292	3.393	3.216	3.444	3.120	3.395	3.323	3.644	3.361	3.142	3.653	3.738
470.0	222.8	227.4	364.8	918.3	613.1	319.8	310.7	301.4	325.0	308.3	299.8	311.3	277.7	267.8	238.4	218.3	202.7	193.8	190.6	193.3	188.0	192.7	189.1	190.3	192.0	192.7	190.2	187.4	184.7	180.5	169.9	156.5	141.5	126.5	109.4	97.94	95.90	94.52	73.02	50.51	39.68	33.03	26.91	22.70	18.85	16.70	16.43	42.49	189.1	619.5	731.3	379.1	26.37	3.962	3.778	3.643	3.744	3.306	3.318	3.433	3.315	3.281	3.594	3.535	3.338	3.447	3.030	3.121	3.116	2.799	3.368	3.231	3.439	3.537	3.466	3.353	3.589
475.0	205.4	206.0	271.2	598.1	 1082	360.8	284.0	271.1	302.8	285.1	265.7	277.1	271.3	240.8	213.3	192.5	185.4	177.1	170.2	172.9	174.1	168.9	167.1	170.5	170.2	167.2	167.1	168.2	167.0	164.6	154.1	144.2	131.6	119.5	101.6	91.61	80.29	81.41	83.65	61.00	43.14	34.97	28.41	23.64	18.83	16.45	14.58	18.32	49.13	144.5	302.5	857.3	439.2	24.20	4.039	3.282	4.126	3.246	3.316	3.544	3.264	3.427	3.489	3.659	3.138	3.182	3.022	3.180	2.845	3.222	3.320	3.381	3.135	3.708	3.248	3.756	3.803
480.0	207.8	209.1	271.3	332.8	 1103	629.7	271.9	262.4	287.3	254.0	252.2	261.8	241.8	235.3	197.5	185.0	175.8	162.5	155.8	158.6	158.7	152.6	152.6	154.7	156.5	154.7	162.4	153.5	155.1	154.7	144.7	135.6	123.5	113.2	97.91	87.67	75.97	70.57	77.22	68.70	46.41	34.31	29.67	23.84	20.22	16.66	14.00	12.98	18.51	38.69	74.74	424.4	887.1	113.4	8.643	3.657	3.623	3.787	3.211	3.184	2.829	3.238	2.975	2.770	3.801	3.423	2.925	3.334	3.004	3.367	3.494	2.944	3.242	2.978	3.137	3.060	2.954
485.0	218.5	221.1	226.7	251.3	747.3	 1040	277.5	272.1	248.7	240.7	256.0	241.2	241.5	221.6	189.3	177.3	164.7	154.6	149.0	142.4	149.4	141.8	137.8	146.1	146.6	146.9	146.6	144.6	142.5	141.4	139.4	129.4	118.1	108.8	94.95	85.28	75.43	66.74	67.55	70.69	54.87	37.51	30.13	24.18	21.36	17.22	14.37	12.71	11.68	14.98	22.49	109.4	553.8	766.1	89.35	4.728	3.468	3.352	3.136	3.494	2.793	3.594	2.853	2.758	3.282	3.311	3.337	3.114	2.696	2.952	2.680	2.753	3.122	3.173	3.454	2.843	3.004
490.0	221.0	203.1	229.6	227.2	370.8	 1126	663.7	236.7	238.4	224.4	244.1	230.9	225.4	199.8	174.3	165.9	147.6	139.6	132.0	133.0	135.1	128.4	127.5	131.4	133.1	129.8	133.2	131.3	131.0	129.0	126.0	119.3	107.9	101.5	86.26	78.75	70.67	63.26	57.40	59.96	59.54	44.94	30.49	25.08	21.63	17.97	15.09	13.02	11.27	9.993	11.18	30.10	142.6	448.6	674.0	302.7	20.84	3.517	3.649	3.718	2.930	2.967	3.147	3.182	3.085	3.146	2.974	3.087	3.016	2.953	2.844	3.054	2.937	2.741	3.301	2.900	3.162
495.0	226.7	184.1	197.6	194.4	252.4	626.4	 1262	341.4	204.9	226.9	229.4	219.6	201.2	188.5	161.3	150.3	133.4	125.0	123.0	126.0	116.1	116.6	112.3	117.2	116.0	117.4	115.0	115.6	118.6	116.2	112.0	111.3	101.3	88.47	81.91	74.56	66.07	59.96	53.46	48.51	50.57	48.59	34.78	25.66	20.24	17.66	16.20	13.90	12.31	9.200	8.772	12.19	36.02	104.7	300.3	805.8	375.0	16.16	3.622	3.427	3.440	3.324	3.233	3.268	2.787	3.164	2.899	3.248	3.281	3.137	3.124	3.472	3.173	2.797	3.265	3.081	2.958
500.0	207.3	198.1	214.6	202.2	218.2	320.0	 1243	642.2	210.7	209.9	205.7	189.6	192.6	172.0	155.4	141.1	121.1	117.5	111.2	107.6	108.3	106.8	106.9	110.1	106.6	105.3	106.9	110.5	104.2	106.3	106.6	99.37	89.24	83.44	75.07	68.16	63.17	57.05	49.56	43.81	40.49	45.31	41.80	27.87	21.38	19.30	15.70	13.86	12.12	9.809	8.261	8.399	13.03	28.51	75.17	437.7	840.0	109.3	7.057	3.700	3.103	3.396	3.234	3.017	2.782	3.013	2.816	2.929	3.479	3.161	3.146	2.996	3.000	2.748	2.858	3.144	3.208
505.0	215.6	176.1	190.1	229.9	212.5	225.2	787.6	 1162	244.8	199.5	195.4	186.6	173.4	158.5	148.6	131.1	109.7	103.7	102.1	101.3	101.7	99.29	99.87	101.4	97.25	97.67	96.36	97.08	96.41	97.25	99.31	89.34	83.84	79.00	70.72	65.19	58.77	52.73	45.68	40.31	38.49	37.96	42.76	31.07	22.32	18.87	15.65	13.39	12.25	9.736	8.991	7.983	7.655	11.42	21.44	115.3	574.3	716.0	83.38	4.242	3.326	3.199	3.202	3.368	3.189	3.426	2.825	2.963	2.966	2.533	2.890	2.640	3.072	2.934	2.969	2.895	3.146
510.0	210.4	211.7	187.3	215.5	207.2	181.1	365.6	 1235	689.5	193.1	177.1	174.1	158.4	145.7	134.9	115.4	100.5	94.02	94.48	89.06	89.49	90.21	86.56	86.27	84.87	83.45	86.67	86.87	85.88	85.48	85.58	81.42	76.60	67.77	63.60	58.92	52.08	46.59	43.39	38.81	35.30	31.88	35.06	34.81	26.70	18.27	15.54	13.52	12.04	10.24	9.081	7.773	6.577	7.594	9.408	29.87	151.1	449.2	595.6	226.3	14.11	3.149	3.163	3.116	3.503	2.960	3.015	3.051	2.592	2.783	3.206	2.969	3.005	2.592	2.878	3.430	3.146
515.0	188.1	209.6	181.7	205.5	197.5	156.0	223.4	642.3	 1238	280.5	164.4	161.0	139.6	125.1	119.7	104.2	93.25	85.67	79.88	80.46	78.06	74.73	79.26	75.97	72.80	73.89	78.58	77.86	76.36	75.45	70.99	69.84	66.63	58.65	59.03	53.63	44.62	42.50	39.80	34.94	32.52	28.21	28.67	29.90	30.39	21.96	14.62	13.69	11.22	9.915	8.577	7.393	6.162	6.184	7.142	10.81	37.71	105.4	277.5	667.2	112.7	9.625	3.302	3.235	3.147	2.336	3.175	3.179	3.347	3.125	2.755	3.301	2.914	2.730	2.981	3.032	2.955
520.0	210.2	192.5	162.6	151.7	191.8	168.7	175.2	279.2	 1188	668.3	153.8	153.1	133.7	119.9	111.8	93.78	89.67	82.12	76.59	75.75	73.26	66.19	67.72	69.11	67.95	68.29	67.21	68.18	68.63	70.89	65.77	62.13	60.43	55.73	51.86	47.21	42.68	39.18	35.33	32.66	29.72	27.11	24.50	25.18	27.78	24.92	17.72	12.86	11.39	9.680	8.908	7.749	6.703	6.520	6.279	6.496	12.99	27.16	69.30	386.1	604.4	94.32	4.803	3.085	3.443	3.154	3.383	3.159	3.015	3.129	3.002	3.134	2.723	2.591	2.945	3.505	2.516
525.0	207.2	154.4	160.1	178.3	186.5	188.1	159.6	180.3	683.5	 1151	183.5	138.6	116.1	112.3	104.2	87.48	75.20	76.64	69.47	70.17	63.61	64.97	64.14	60.49	61.96	60.71	60.56	61.83	59.37	64.53	59.05	56.27	52.74	50.69	47.49	44.84	39.74	35.50	32.83	30.38	26.64	25.42	21.66	21.36	23.48	25.78	19.41	12.68	10.84	8.995	8.793	7.928	7.052	6.915	6.144	5.596	7.105	9.832	19.28	104.8	447.9	516.4	66.01	3.600	3.252	2.689	3.146	2.671	2.831	2.634	2.868	2.996	3.573	3.001	2.457	3.074	2.679
530.0	205.5	173.7	168.7	163.7	170.6	181.6	155.2	143.9	291.3	 1071	606.1	125.7	114.1	100.2	95.13	80.70	65.57	66.92	61.70	60.36	58.35	55.88	53.66	51.56	52.88	54.51	53.89	53.84	54.00	54.92	52.53	49.85	47.38	46.34	40.14	39.40	35.39	31.48	29.98	28.08	24.72	22.64	20.74	19.50	18.27	20.30	20.51	15.32	10.79	8.895	7.871	7.411	6.623	6.091	6.062	5.472	5.573	5.772	7.791	26.63	119.3	338.8	422.6	73.14	8.491	2.709	3.083	2.592	2.594	3.056	2.794	3.214	3.023	2.832	2.809	3.096	2.585
535.0	188.4	189.4	159.2	176.7	150.7	163.6	139.5	116.0	152.4	462.9	 1123	218.3	97.86	94.95	84.67	72.25	61.65	61.19	58.37	49.26	49.40	47.89	47.21	49.20	47.12	43.94	47.21	45.76	48.46	47.84	45.30	45.20	41.04	38.13	34.40	34.33	31.43	28.36	26.31	23.94	21.08	20.48	18.49	16.77	15.95	15.49	17.87	17.56	12.67	9.329	7.053	7.777	6.204	5.764	6.086	4.826	5.392	5.154	5.334	9.378	29.36	79.88	205.0	451.0	101.8	5.513	2.823	2.933	2.757	3.545	2.408	3.149	2.930	2.465	2.837	2.986	2.454
540.0	201.6	206.1	143.6	143.0	134.2	140.0	157.5	112.6	117.2	193.6	 1005	547.0	87.41	80.78	77.22	58.91	60.89	51.85	50.84	48.96	47.02	44.64	44.17	44.05	41.22	41.15	40.65	42.35	42.49	40.97	43.60	40.74	38.14	34.50	31.62	30.14	28.15	25.67	23.12	21.82	19.50	18.51	15.76	14.79	15.17	13.29	13.44	17.68	14.26	10.04	7.059	7.040	6.285	6.001	5.647	5.933	5.092	4.546	4.738	5.808	9.802	20.39	52.99	277.8	426.2	77.44	3.250	2.714	3.459	3.154	2.897	3.074	2.634	2.713	2.782	2.749	2.540
545.0	182.0	193.5	166.0	151.8	132.4	142.1	156.8	128.8	121.4	118.1	524.9	940.9	111.7	72.60	68.69	60.17	57.44	46.29	47.87	42.00	39.64	37.82	39.04	39.14	37.01	39.61	35.38	37.79	37.05	38.69	38.80	35.13	33.41	31.30	28.78	26.84	23.77	22.55	21.05	20.61	17.64	16.18	14.80	13.49	13.64	12.20	11.12	14.62	14.04	10.46	8.099	6.711	6.203	5.446	5.421	6.123	4.938	4.668	4.412	4.633	5.007	7.588	14.64	76.35	331.3	356.0	46.01	3.738	3.197	2.874	2.221	2.943	2.315	2.666	2.786	2.821	2.403
550.0	195.1	179.3	137.6	144.6	118.9	105.7	141.3	143.1	107.9	101.2	205.1	850.8	469.2	70.80	63.00	56.57	46.72	42.78	41.52	38.11	34.42	33.19	33.21	33.97	33.18	35.15	31.15	31.42	32.98	31.47	32.06	29.45	28.90	27.35	24.41	22.44	21.20	19.63	19.52	17.79	15.59	14.21	13.51	12.90	11.92	11.01	9.683	11.11	12.37	11.50	8.740	6.395	5.682	5.035	5.204	5.027	4.814	4.745	4.594	4.029	4.285	4.977	6.408	19.94	90.18	247.0	288.1	63.52	6.018	3.373	2.562	2.919	2.474	2.720	3.101	2.819	2.859
555.0	185.8	159.8	160.2	138.4	117.8	110.5	108.9	136.9	110.7	86.66	110.6	330.8	918.3	138.9	55.17	47.77	39.06	37.67	35.16	32.25	33.89	28.97	30.33	28.58	26.47	27.64	26.74	25.81	28.08	27.27	26.70	25.48	23.39	22.96	18.97	19.56	19.12	17.40	17.38	16.50	12.91	12.41	12.46	11.93	10.50	9.909	9.097	7.810	8.127	10.70	9.799	6.769	5.875	4.746	4.967	5.149	4.575	4.083	4.112	3.987	3.772	4.187	4.067	7.195	22.73	58.77	152.7	306.3	83.98	4.733	2.635	3.061	2.707	3.209	3.309	2.713	2.585
560.0	160.8	148.0	150.5	165.2	131.2	123.6	108.0	122.2	126.8	86.04	87.50	139.5	793.5	419.1	53.55	45.27	35.90	34.19	31.04	28.68	28.75	24.84	25.16	24.18	25.36	23.51	24.17	24.87	23.76	23.99	21.56	22.93	20.77	17.68	16.63	16.99	16.14	15.49	14.82	14.05	12.65	12.48	11.11	9.373	8.986	8.536	7.526	7.684	6.671	8.776	9.492	8.269	5.527	4.925	5.388	4.504	4.276	4.291	4.087	4.650	3.328	3.514	3.163	4.347	8.198	16.18	41.10	195.5	270.4	53.02	3.061	3.197	3.073	3.084	3.203	2.854	2.558
565.0	177.4	157.6	162.3	142.0	130.7	104.2	103.4	103.1	136.6	83.43	75.83	89.94	417.1	795.9	68.88	39.44	32.75	29.70	28.60	24.20	26.84	26.34	21.61	22.29	23.36	21.12	20.33	21.54	20.78	21.47	19.71	18.51	18.68	18.10	16.01	14.83	14.71	13.04	13.04	12.45	10.79	11.67	9.966	8.377	8.524	8.316	7.467	6.876	5.568	5.909	7.657	8.141	6.294	5.253	4.767	4.379	4.093	3.852	4.297	4.433	4.331	4.041	3.467	3.583	5.100	6.332	12.02	55.86	221.6	206.2	24.60	3.168	2.808	2.147	2.851	2.791	2.256
570.0	191.0	162.3	142.4	131.1	109.3	103.9	98.01	92.37	118.8	97.47	77.57	72.27	154.6	709.1	374.8	39.87	31.02	27.47	25.11	22.62	23.54	19.78	19.27	20.03	19.52	17.65	18.61	19.53	18.28	17.60	17.89	17.06	16.44	15.38	13.39	13.17	12.79	11.84	10.55	10.66	9.757	9.358	8.454	7.891	7.240	7.544	6.013	6.004	5.101	4.804	5.575	7.219	6.283	5.265	4.345	4.126	4.394	3.559	3.834	4.146	4.183	3.418	3.448	3.685	3.746	4.413	5.577	15.27	61.77	155.0	151.3	48.93	4.652	2.628	2.875	2.887	2.900
575.0	161.9	159.7	124.7	127.9	94.51	112.2	101.3	83.25	88.38	110.0	78.51	67.62	88.21	264.5	746.9	88.55	28.89	25.09	23.40	20.34	20.42	19.64	16.47	17.80	16.36	15.28	15.29	15.00	15.82	15.22	14.45	14.06	13.88	12.93	11.34	11.60	10.32	10.24	9.300	8.375	9.836	7.408	7.220	7.030	6.269	5.648	5.936	4.935	4.670	4.186	4.404	5.360	5.764	6.405	4.741	3.730	3.612	3.231	3.443	3.361	3.890	4.043	3.567	3.895	3.609	4.141	4.471	6.064	16.55	37.69	91.98	184.6	63.37	4.124	3.350	2.994	2.885
580.0	154.8	147.5	107.1	124.8	106.3	83.22	80.62	62.41	74.21	123.4	88.36	71.64	63.27	99.21	668.8	324.2	25.26	27.45	22.50	18.68	17.45	18.42	17.47	15.80	15.78	14.44	12.87	13.07	14.06	15.28	12.25	13.30	13.89	10.76	10.09	9.573	9.260	9.834	8.574	8.214	7.704	6.386	6.941	6.914	6.165	4.833	6.119	4.570	4.878	4.229	3.930	4.688	4.676	6.159	5.068	3.849	3.582	3.808	3.860	3.446	3.739	3.600	3.395	3.230	3.201	3.792	3.456	3.753	5.950	10.86	25.95	117.7	162.8	34.07	2.959	2.634	3.075
585.0	207.8	158.5	144.9	125.4	114.3	94.47	73.56	71.33	77.70	99.96	100.5	70.32	62.42	59.14	327.9	600.5	38.67	26.25	18.90	21.71	16.59	17.79	15.97	14.98	13.04	12.89	11.18	12.01	12.13	13.48	12.82	12.81	11.78	10.61	9.219	8.469	8.989	8.821	7.749	7.376	6.943	6.845	6.507	6.029	5.685	5.391	5.017	4.561	4.690	3.851	3.716	4.114	3.921	5.650	5.190	3.460	3.305	3.831	3.433	3.711	3.578	2.976	4.064	3.063	3.380	3.741	3.155	3.061	3.607	4.811	8.139	34.67	126.3	114.0	18.63	2.646	2.747
590.0	183.4	168.8	143.9	116.7	116.3	99.26	90.06	83.28	69.01	81.12	108.2	71.34	62.70	44.70	112.9	536.2	258.6	23.06	18.12	17.48	15.50	16.10	13.71	13.46	11.14	12.71	11.50	11.46	12.17	10.94	10.83	10.75	9.440	9.528	8.828	8.694	8.039	7.695	6.604	6.755	5.897	6.120	5.958	5.350	5.192	4.812	4.567	4.398	4.119	3.500	3.441	3.946	3.768	4.207	4.331	4.311	3.549	3.688	3.321	2.883	3.703	2.983	3.309	3.433	3.440	2.893	2.998	3.244	2.997	3.158	3.851	9.755	35.30	90.14	104.2	36.63	3.933
595.0	194.7	189.0	138.5	120.4	114.6	96.70	76.83	89.85	69.86	75.44	99.87	79.87	63.54	44.80	53.33	197.0	535.1	60.32	14.78	17.06	13.62	13.80	13.67	13.20	10.28	12.39	11.78	9.994	11.35	9.657	8.971	9.454	8.079	9.434	7.175	7.722	6.119	6.262	5.675	6.125	5.720	5.405	5.811	4.364	4.433	4.234	3.801	3.806	3.516	2.964	3.301	3.772	3.597	3.955	3.669	4.684	4.233	3.782	3.043	2.970	3.516	2.910	3.181	3.332	3.319	2.445	2.897	3.276	3.332	3.392	3.241	4.379	10.13	22.86	53.16	117.1	42.82
600.0	201.1	190.1	151.3	134.2	114.3	101.5	64.60	83.27	66.83	59.38	82.73	96.67	63.21	47.74	41.76	69.73	465.2	210.1	15.57	14.91	15.53	13.17	13.21	12.15	10.66	11.25	9.533	10.58	9.781	9.287	9.684	8.188	7.967	8.271	5.963	7.184	5.388	6.316	5.754	5.880	5.589	4.912	4.909	4.865	4.893	4.098	3.696	3.718	2.795	3.178	3.366	3.392	3.184	3.006	3.785	4.701	4.432	3.877	2.911	2.719	3.155	3.113	2.987	2.954	3.228	3.693	3.184	2.838	2.756	3.079	2.985	2.875	4.219	7.368	15.14	69.29	106.1
605.0	175.7	186.2	183.8	123.9	104.5	99.58	85.25	86.47	69.26	60.95	68.92	103.0	64.25	51.37	39.93	35.31	234.9	417.0	27.98	15.17	12.01	11.43	10.33	13.69	9.260	10.07	9.638	9.585	9.506	8.981	8.903	8.889	6.456	7.395	6.996	5.517	5.828	6.014	5.440	5.330	5.463	4.872	4.467	4.767	4.530	4.220	4.056	4.019	3.402	2.921	2.988	3.040	3.192	3.178	3.131	3.471	4.173	3.767	3.339	2.642	2.610	2.601	3.159	2.256	3.405	3.271	3.741	2.612	2.664	3.097	2.782	2.627	2.957	3.768	6.004	20.36	77.76
610.0	180.1	159.3	162.8	127.9	112.0	92.91	74.05	85.62	66.94	59.07	64.91	81.25	82.70	51.48	38.79	28.77	76.55	376.0	188.7	15.90	13.21	10.31	10.67	11.45	9.994	9.964	8.548	9.513	8.498	8.615	7.803	7.522	6.857	6.730	6.650	5.768	5.607	5.663	5.151	4.773	4.842	4.838	4.156	3.976	4.313	4.034	3.777	3.406	3.005	2.989	2.840	3.041	2.957	2.916	2.910	2.980	3.381	3.897	3.175	2.885	2.797	3.084	2.821	2.796	3.046	2.738	3.014	3.040	2.862	2.979	2.911	2.956	2.721	2.834	3.778	7.201	21.95
615.0	202.2	160.5	117.1	134.3	117.7	82.52	83.49	70.44	60.99	63.54	65.80	64.11	87.01	58.50	34.24	26.62	33.05	133.6	388.2	49.16	11.27	12.11	10.07	11.16	9.755	8.628	7.386	8.995	8.780	7.425	7.070	8.343	7.748	5.619	6.210	5.781	4.760	5.595	4.917	3.817	4.624	4.155	4.228	4.347	3.897	4.359	3.732	3.552	3.083	3.031	2.443	3.192	2.688	3.057	2.776	2.822	2.879	2.979	3.691	3.230	3.271	2.547	2.560	2.333	3.171	2.579	2.876	2.749	2.590	3.270	2.779	2.570	2.844	2.625	2.881	3.732	6.785
620.0	180.1	149.6	130.0	124.7	126.3	87.92	82.91	60.55	70.55	62.47	50.63	62.28	72.53	59.95	34.55	26.88	25.35	46.39	338.5	235.0	13.11	11.10	8.382	9.623	9.231	8.812	7.910	8.036	6.557	7.788	7.713	7.017	6.105	5.946	5.693	5.581	4.507	4.807	4.776	4.400	4.147	3.317	4.133	4.266	4.136	3.938	3.259	3.475	2.630	2.577	2.541	3.079	2.961	3.045	2.462	2.692	3.430	3.004	3.008	3.579	3.089	2.930	2.711	2.373	3.200	2.908	2.945	3.236	2.773	2.867	2.767	2.683	3.279	2.615	2.496	3.018	3.352
625.0	136.8	165.9	139.4	116.0	109.0	83.90	89.01	68.02	62.33	66.34	60.50	56.18	64.14	67.04	38.59	25.64	23.05	24.28	170.7	467.2	21.16	11.36	11.35	9.504	8.970	8.263	8.280	7.863	9.601	7.687	7.971	6.650	5.883	5.705	5.964	5.899	4.549	5.359	4.981	4.781	4.148	4.097	3.935	4.290	3.652	3.488	3.002	3.310	2.441	2.585	2.244	2.983	2.593	2.916	2.480	2.510	3.066	2.822	3.095	3.071	3.270	2.279	2.512	2.434	2.731	3.062	2.349	3.228	2.655	2.772	2.448	2.946	3.100	2.418	2.699	3.083	3.013
630.0	177.0	184.1	143.7	131.4	110.2	81.00	74.76	70.59	64.88	64.69	60.75	54.45	51.21	65.06	45.68	28.97	22.33	21.20	54.00	431.8	134.1	10.55	9.177	8.630	8.202	7.967	7.811	7.464	7.058	7.544	7.227	6.292	5.611	6.185	5.248	5.075	4.578	5.024	4.814	4.337	4.114	3.847	4.029	3.317	3.713	3.705	2.902	3.207	2.391	2.741	2.204	2.765	2.805	3.024	2.499	2.876	2.698	2.970	3.088	3.093	3.432	2.714	2.928	2.692	2.994	3.108	2.848	2.721	2.476	2.592	2.810	2.628	3.031	2.284	2.754	2.956	3.195
635.0	218.0	183.3	144.1	119.7	99.83	111.9	85.85	75.45	62.19	60.40	69.53	50.19	53.89	54.37	53.07	26.88	19.67	18.38	23.69	160.0	320.5	28.92	11.22	9.386	10.17	7.322	5.523	7.258	6.484	6.193	7.021	5.706	5.967	5.485	5.002	4.627	5.276	4.686	4.587	4.248	4.195	3.789	3.503	3.451	3.376	3.587	2.965	3.076	2.704	2.394	2.762	2.697	2.365	2.798	2.631	3.091	2.460	2.793	2.777	3.056	2.895	2.640	2.588	2.782	3.328	2.922	2.771	3.095	2.720	2.718	2.852	2.914	2.768	2.536	2.683	2.476	3.253
640.0	180.0	170.5	170.3	126.8	94.03	99.12	81.16	83.20	71.38	53.77	60.02	50.94	48.38	49.80	50.87	30.01	20.86	19.16	17.06	50.06	290.4	115.1	10.45	9.439	10.17	7.044	7.108	7.211	7.779	6.747	7.350	5.493	6.687	5.540	5.093	4.083	4.075	3.843	4.428	3.909	3.829	4.580	3.632	3.505	3.673	2.987	3.227	2.887	2.696	2.576	2.427	2.667	2.060	3.143	2.570	2.997	2.875	2.363	2.896	3.430	3.187	3.387	2.770	3.039	2.797	2.810	2.950	2.897	2.444	2.777	2.713	2.713	2.861	2.563	2.431	2.411	2.635
645.0	167.2	189.1	130.3	118.2	94.31	94.05	77.66	71.30	68.21	61.07	60.67	57.55	53.54	43.70	47.47	37.29	22.83	19.51	14.47	23.00	154.9	237.7	14.76	8.632	8.326	7.562	7.743	7.333	6.931	6.794	7.139	6.219	6.154	5.807	4.990	4.366	3.966	4.101	4.630	3.308	3.593	4.122	3.369	3.449	3.630	3.635	2.642	2.817	2.960	2.724	2.481	2.606	3.166	2.186	2.607	2.401	3.263	2.573	2.922	2.670	3.044	3.126	3.561	2.828	2.807	2.147	2.873	2.365	2.415	3.059	2.315	3.165	2.468	2.496	2.181	2.363	2.860
650.0	220.0	169.1	154.3	126.7	103.4	79.45	72.06	74.57	71.27	66.31	61.94	55.72	52.08	39.07	42.44	40.79	23.49	19.26	14.32	15.39	55.15	276.0	52.66	9.467	8.070	7.473	8.903	8.026	7.277	6.635	6.457	5.984	4.798	4.515	4.806	4.756	4.361	4.137	4.201	3.765	4.116	3.676	3.457	3.773	3.566	2.822	3.044	2.637	2.716	2.715	2.294	2.556	2.735	2.943	2.746	2.502	3.016	2.547	2.744	2.731	2.819	2.533	3.405	2.559	2.857	2.426	2.754	2.765	2.902	2.341	2.868	2.577	2.516	2.990	2.609	3.211	3.029
