Sample:	'1
File name:	C2025060313圣泉新材料萃取后（液） 10000倍.FD3
Run date:	'14:55:27, 06/04/2025
Operator:	Administrator
Comment:	'

Instrument
Model:	F-2700 FL Spectrophotometer
Serial number:	23B8-004
ROM Version:	4J14000 07

Instrument parameters
Measurement type:	3-D scan
Data mode:	Fluorescence
EX  Start WL:	220.0 nm
EX  End WL:	600.0 nm
EX Sampling interval:	5.0 nm
EM  Start WL:	230.0 nm
EM  End WL:	650.0 nm
EM Sampling interval:	5.0 nm
Scan speed:	12000 nm/min
EX Slit:	5.0 nm
EM Slit:	5.0 nm
PMT Voltage:	700 V
Response:	Auto 
Corrected spectra:	Off
Contour interval:	50.000

Peak integration
Integration method:	Rectangular
Sensitivity:	1
Threshold:	1.000

Peaks
No.	ApexEX/EM(nm)	Height(Data)
1	225.0/490.0	171.8
2	230.0/505.0	152.9
3	235.0/515.0	138.2
4	240.0/265.0	477.3
5	240.0/525.0	116.7
6	245.0/270.0	540.7
7	245.0/540.0	129.7
8	250.0/275.0	715.1
9	250.0/550.0	111.4
10	255.0/565.0	151.3
11	265.0/585.0	291.6
12	270.0/300.0	3722
13	270.0/595.0	281.3
14	290.0/325.0	464.3
15	295.0/330.0	312.3
16	300.0/335.0	310.6
17	305.0/345.0	266.1
18	310.0/350.0	184.5
19	315.0/355.0	181.5
20	320.0/360.0	164.9
21	330.0/375.0	111.5
22	335.0/380.0	123.8
23	340.0/385.0	104.3
24	350.0/400.0	85.88
25	355.0/405.0	78.15
26	360.0/410.0	59.51
27	365.0/420.0	61.42
28	370.0/425.0	57.40
29	375.0/430.0	43.81
30	380.0/440.0	42.13
31	385.0/300.0	9.478
32	385.0/445.0	38.35
33	390.0/450.0	28.94
34	395.0/460.0	26.06
35	400.0/465.0	23.55
36	405.0/470.0	17.34
37	410.0/480.0	16.52
38	415.0/485.0	14.63
39	420.0/490.0	11.46
40	425.0/500.0	10.76
41	430.0/305.0	5.772
42	430.0/505.0	9.853
43	435.0/300.0	5.820
44	435.0/515.0	7.541
45	440.0/520.0	7.250
46	445.0/525.0	6.332
47	450.0/535.0	5.112
48	455.0/540.0	4.932
49	465.0/555.0	2.829
50	470.0/560.0	2.730
51	480.0/575.0	1.514
52	485.0/265.0	2.307
53	485.0/580.0	1.471
54	505.0/275.0	3.743
55	510.0/280.0	4.651
56	540.0/295.0	17.19
57	550.0/305.0	15.32
58	575.0/290.0	45.33
59	580.0/320.0	3.680
60	585.0/325.0	3.102

Data points
	220.0	225.0	230.0	235.0	240.0	245.0	250.0	255.0	260.0	265.0	270.0	275.0	280.0	285.0	290.0	295.0	300.0	305.0	310.0	315.0	320.0	325.0	330.0	335.0	340.0	345.0	350.0	355.0	360.0	365.0	370.0	375.0	380.0	385.0	390.0	395.0	400.0	405.0	410.0	415.0	420.0	425.0	430.0	435.0	440.0	445.0	450.0	455.0	460.0	465.0	470.0	475.0	480.0	485.0	490.0	495.0	500.0	505.0	510.0	515.0	520.0	525.0	530.0	535.0	540.0	545.0	550.0	555.0	560.0	565.0	570.0	575.0	580.0	585.0	590.0	595.0	600.0
230.0	115.5	1785	3566	988.0	34.29	6.913	4.877	4.299	4.263	3.908	3.712	2.954	2.334	1.950	1.553	1.372	1.133	1.117	0.838	0.770	0.777	0.699	0.671	0.618	0.584	0.511	0.511	0.509	0.503	0.523	0.430	0.439	0.462	0.370	0.374	0.398	0.394	0.380	0.340	0.357	0.608	0.850	0.889	0.453	0.343	0.343	1.623	6.754	10.18	6.800	2.370	0.565	0.246	0.205	0.222	0.238	0.238	0.226	0.238	0.234	0.195	0.214	0.210	0.206	0.208	0.241	0.219	0.218	0.193	0.231	0.214	0.221	0.208	0.183	0.220	0.239	0.254
235.0	240.2	503.7	2235	3602	625.6	48.75	5.928	5.899	5.186	3.839	3.919	3.566	2.533	1.659	1.535	1.445	1.318	1.087	0.915	0.872	0.822	0.625	0.698	0.704	0.524	0.524	0.518	0.410	0.540	0.492	0.394	0.443	0.422	0.394	0.404	0.427	0.335	0.427	0.364	0.326	0.413	0.451	0.716	0.905	0.761	0.470	0.597	1.822	4.021	6.949	9.648	9.422	4.100	0.780	0.216	0.213	0.296	0.227	0.232	0.192	0.269	0.217	0.191	0.162	0.243	0.257	0.223	0.245	0.185	0.235	0.183	0.218	0.191	0.220	0.209	0.233	0.217
240.0	335.7	264.2	695.6	3297	3152	473.4	21.59	6.499	6.211	5.016	4.288	2.918	2.647	1.899	1.633	1.219	1.141	0.997	0.846	1.056	0.818	0.736	0.646	0.627	0.632	0.612	0.473	0.441	0.465	0.516	0.448	0.413	0.405	0.486	0.437	0.388	0.345	0.438	0.384	0.329	0.326	0.322	0.482	0.749	0.986	0.874	0.676	0.699	1.071	2.215	5.719	12.57	14.13	8.819	2.985	0.468	0.257	0.224	0.205	0.225	0.252	0.248	0.216	0.165	0.241	0.217	0.238	0.213	0.211	0.237	0.220	0.194	0.196	0.203	0.241	0.282	0.209
245.0	253.6	336.0	239.0	1196	3697	3351	320.3	10.89	7.443	5.003	4.655	3.410	2.777	2.066	1.642	1.517	1.322	1.228	1.034	0.864	0.944	0.628	0.733	0.779	0.672	0.751	0.632	0.482	0.469	0.470	0.426	0.511	0.364	0.419	0.445	0.389	0.392	0.379	0.409	0.358	0.331	0.303	0.426	0.365	0.640	0.951	1.111	0.919	0.503	0.674	1.619	4.729	11.14	16.34	16.41	7.266	1.712	0.297	0.249	0.247	0.245	0.238	0.213	0.184	0.257	0.265	0.201	0.226	0.238	0.282	0.204	0.188	0.196	0.257	0.233	0.222	0.202
250.0	91.32	257.1	329.5	369.7	1281	3993	4029	1117	59.23	7.149	6.449	3.971	3.058	2.376	1.802	1.662	1.483	1.247	1.107	0.946	0.942	0.765	0.705	0.791	0.743	0.677	0.580	0.625	0.518	0.527	0.465	0.547	0.382	0.392	0.418	0.395	0.402	0.379	0.402	0.388	0.327	0.358	0.336	0.371	0.396	0.527	0.688	1.111	1.089	0.914	0.785	1.346	2.904	5.719	11.09	15.12	17.49	15.13	8.095	2.253	0.394	0.258	0.220	0.253	0.234	0.252	0.208	0.209	0.234	0.213	0.265	0.215	0.198	0.234	0.240	0.228	0.270
255.0	44.31	92.34	267.3	394.0	381.5	1076	3808	6140	1685	48.87	7.784	5.348	4.197	2.872	2.357	1.842	1.844	1.322	1.213	0.975	1.162	0.755	0.758	0.842	0.760	0.773	0.765	0.748	0.696	0.612	0.430	0.519	0.516	0.429	0.429	0.370	0.363	0.434	0.380	0.377	0.375	0.394	0.411	0.389	0.411	0.377	0.428	0.484	0.636	1.039	1.584	1.343	1.135	1.557	2.703	3.967	7.728	18.32	30.81	27.47	12.83	1.908	0.316	0.256	0.236	0.250	0.231	0.268	0.243	0.232	0.230	0.202	0.213	0.261	0.188	0.260	0.238
260.0	32.44	43.66	108.2	379.8	361.1	319.2	1262	6157	8505	281.5	23.50	8.463	5.473	3.834	2.714	1.683	2.109	1.303	1.128	1.029	1.179	1.099	0.857	0.817	0.748	0.705	0.714	0.662	0.811	0.613	0.467	0.565	0.587	0.534	0.372	0.389	0.423	0.483	0.405	0.413	0.433	0.417	0.395	0.383	0.396	0.304	0.311	0.363	0.334	0.594	1.182	1.894	1.778	1.133	0.981	1.241	2.159	5.392	15.33	37.03	34.06	24.48	8.611	1.015	0.330	0.304	0.247	0.284	0.241	0.240	0.218	0.240	0.218	0.263	0.202	0.261	0.260
265.0	33.93	28.72	43.75	196.6	477.3	290.9	360.7	2396	9999.9	5954	207.4	13.08	6.622	4.521	3.568	2.539	2.098	1.449	1.285	1.268	1.099	1.057	0.862	0.777	0.782	0.727	0.779	0.681	0.764	0.572	0.435	0.508	0.503	0.644	0.475	0.360	0.416	0.462	0.353	0.400	0.373	0.397	0.417	0.399	0.367	0.341	0.351	0.326	0.293	0.370	0.507	1.207	2.070	2.307	1.463	0.939	0.959	1.709	3.969	11.85	25.01	46.43	33.44	20.36	4.554	0.492	0.320	0.269	0.267	0.257	0.255	0.291	0.284	0.281	0.286	0.241	0.283
270.0	61.55	45.66	39.36	86.18	302.2	540.7	363.4	638.6	3687	7552	6360	822.9	38.71	7.114	4.722	3.293	2.594	2.110	1.761	1.413	1.254	1.043	1.021	0.914	0.882	0.884	0.862	0.785	0.773	0.661	0.559	0.618	0.640	0.587	0.624	0.515	0.454	0.501	0.362	0.501	0.448	0.454	0.512	0.405	0.397	0.368	0.381	0.381	0.321	0.286	0.375	0.600	0.964	1.614	2.160	2.352	1.996	1.384	1.440	3.083	6.208	14.47	23.17	38.48	39.68	37.34	13.99	3.440	0.549	0.333	0.274	0.309	0.275	0.285	0.267	0.267	0.264
275.0	217.9	129.5	76.38	69.29	159.2	373.9	715.1	439.2	982.9	2119	7272	9999.9	1048	31.25	6.843	4.622	3.634	2.697	2.247	1.613	1.590	1.545	1.268	1.064	0.919	0.954	0.809	0.645	0.817	0.752	0.654	0.767	0.974	1.304	1.170	0.834	0.736	0.714	0.656	0.618	0.660	0.803	0.735	0.801	0.735	0.650	0.561	0.483	0.415	0.349	0.361	0.557	0.615	0.879	1.193	1.755	3.356	3.743	2.512	1.686	2.123	4.000	6.049	9.853	14.66	35.73	63.80	33.09	21.24	3.611	0.534	0.441	0.447	0.386	0.282	0.295	0.319
280.0	586.8	321.4	137.4	91.56	143.2	284.2	656.1	871.0	536.3	1025	2819	9999.9	8659	152.7	15.38	7.096	4.764	3.600	2.487	1.873	1.761	1.643	1.398	1.108	1.043	1.057	1.014	0.726	0.867	0.824	0.776	1.165	1.928	2.311	2.172	1.627	1.307	1.297	1.269	1.397	1.246	1.495	1.444	1.353	1.482	1.370	0.906	0.797	0.632	0.437	0.493	0.487	0.669	0.727	1.097	1.319	2.052	3.492	4.651	3.841	2.756	2.888	3.745	4.619	6.048	11.66	27.17	40.76	67.96	31.81	13.89	1.752	0.566	0.514	0.389	0.368	0.350
285.0	1167	609.8	249.5	130.5	168.5	298.3	545.8	1158	1271	1339	1801	4434	9999.9	5921	110.4	10.32	6.656	4.044	3.453	2.177	2.066	1.828	1.595	1.192	1.220	1.213	1.060	0.849	0.927	0.842	1.005	1.766	3.243	4.103	3.336	2.591	2.172	2.208	2.101	2.414	2.204	2.617	2.615	2.572	2.568	2.138	1.669	1.273	0.977	0.543	0.596	0.580	0.704	0.862	1.112	1.348	1.792	2.472	4.031	6.041	6.320	5.304	5.147	6.107	6.543	7.884	10.71	15.21	35.20	58.39	64.34	27.31	8.055	0.949	0.489	0.446	0.465
290.0	2030	1072	415.2	186.1	196.1	329.7	589.7	1131	2014	2460	2397	2518	4000	8040	6942	447.4	23.98	6.207	4.005	3.163	2.611	2.227	1.763	1.462	1.446	1.332	1.085	1.012	0.909	0.944	1.262	2.694	5.111	7.005	5.937	4.146	3.464	3.409	3.436	3.595	3.691	4.114	4.376	4.377	4.191	3.390	2.770	1.942	1.412	0.826	0.751	0.723	0.832	0.955	1.217	1.604	2.111	2.766	3.855	5.258	7.019	9.511	10.45	10.70	10.78	10.43	10.18	10.37	12.88	18.24	30.11	45.33	40.55	47.07	17.14	6.879	0.955
295.0	2666	1447	581.5	238.1	211.7	354.6	655.9	1201	2072	3264	3293	2448	1629	2143	6443	6876	601.4	16.93	6.262	4.204	3.519	2.650	2.152	2.032	1.774	1.367	1.261	1.179	1.036	0.966	1.387	3.347	6.419	8.550	7.384	5.595	4.742	4.195	4.528	4.896	4.639	5.139	5.676	5.669	5.445	4.700	3.161	2.648	1.860	1.313	0.792	0.846	0.904	1.014	1.307	1.701	2.361	2.858	4.292	5.688	7.352	9.678	11.69	15.33	17.19	13.94	12.66	11.03	9.142	7.436	8.579	11.32	12.39	30.52	54.43	68.09	27.07
300.0	2790	1586	652.2	256.1	209.5	355.5	657.6	1200	2018	3090	3722	2608	1135	656.2	1902	8345	5790	86.17	10.24	5.361	4.158	3.080	2.334	2.116	1.883	1.585	1.485	1.275	1.128	1.161	1.467	3.352	6.718	9.478	7.937	5.752	4.886	4.580	4.701	5.075	4.998	5.433	5.742	5.820	5.596	4.907	3.704	2.721	2.010	1.371	0.853	0.982	0.938	1.097	1.254	1.689	2.427	3.111	4.298	5.700	7.131	9.319	10.92	13.62	16.80	16.44	14.65	11.62	8.103	5.247	3.842	3.692	3.675	7.968	18.02	45.75	69.70
305.0	2666	1560	653.6	258.0	198.1	328.2	612.2	1135	1876	2728	3362	2836	1048	323.1	482.6	2797	9880	4493	65.37	7.473	5.271	3.691	2.898	2.500	2.115	1.621	1.444	1.228	1.151	1.211	1.266	3.467	6.192	9.244	8.264	5.730	4.829	4.386	4.794	4.962	5.175	5.357	5.772	5.712	5.621	4.731	3.818	2.855	1.940	1.406	0.897	1.012	0.935	0.983	1.280	1.625	2.347	2.863	4.093	5.536	6.857	8.682	10.11	11.83	14.35	14.47	15.32	13.38	8.716	4.624	2.688	1.947	1.737	2.501	4.605	11.91	27.32
310.0	2281	1347	577.1	240.3	176.3	265.9	507.9	934.8	1552	2223	2558	2371	1243	301.3	156.9	659.0	3132	6890	5340	301.0	17.24	5.431	3.875	3.070	2.328	1.954	1.721	1.523	1.376	1.298	1.409	3.018	5.846	7.543	6.961	5.115	4.244	4.121	3.949	4.336	4.287	4.727	5.021	5.017	4.993	4.254	3.205	2.539	1.763	1.267	0.874	0.922	0.800	0.920	1.089	1.466	1.898	2.438	3.314	4.412	5.481	7.369	8.259	9.934	11.28	11.26	11.43	11.14	9.009	5.817	3.318	1.902	1.170	1.205	1.566	3.290	6.702
315.0	1786	1066	460.3	197.5	134.5	199.6	382.3	699.4	1168	1652	1860	1574	1023	577.2	119.5	170.2	717.5	1672	4700	7142	454.0	14.73	5.523	4.050	3.088	2.226	1.884	1.488	1.309	1.261	1.549	2.690	4.654	5.992	5.443	4.345	3.612	3.439	3.321	3.386	3.569	3.833	3.625	4.021	3.814	3.480	2.635	2.115	1.570	1.007	0.745	0.763	0.702	0.848	0.989	1.167	1.515	2.026	2.609	3.295	4.320	5.263	6.476	7.287	8.645	7.970	7.974	7.560	5.677	4.686	4.627	3.592	2.069	0.938	0.822	1.234	1.894
320.0	1431	876.5	412.9	169.2	112.7	155.9	297.4	537.5	904.2	1266	1423	1174	657.3	604.0	290.2	70.41	178.7	391.3	1306	6190	4296	67.04	8.608	5.181	3.516	2.888	2.118	1.747	1.477	1.293	1.654	2.469	3.826	5.220	4.602	3.772	3.124	2.947	2.729	2.788	3.011	3.209	3.126	3.262	3.286	2.844	2.154	1.828	1.396	0.924	0.692	0.769	0.708	0.702	0.772	0.961	1.309	1.719	2.037	2.390	3.294	3.942	5.188	5.916	6.544	6.200	6.038	5.577	4.020	3.001	2.616	3.641	3.680	1.958	0.987	0.730	0.836
325.0	1149	712.7	362.3	147.2	87.96	121.5	235.1	416.4	702.2	987.1	1113	911.5	460.1	360.5	464.3	111.2	58.19	102.5	309.5	1926	7165	3700	54.87	7.207	4.647	3.538	2.411	2.151	1.670	1.649	1.575	2.222	3.443	4.246	4.003	3.082	2.640	2.363	2.392	2.416	2.387	2.586	2.659	2.720	2.379	2.418	1.917	1.635	1.136	0.820	0.622	0.670	0.615	0.613	0.700	0.875	1.042	1.388	1.738	2.106	2.574	3.162	4.115	4.490	4.908	4.840	4.845	4.116	3.279	2.152	1.493	1.869	2.616	3.102	2.455	1.117	0.650
330.0	854.6	562.5	286.9	137.4	78.22	98.71	164.5	302.1	497.0	700.7	794.6	660.5	334.6	180.9	265.8	312.3	125.9	40.95	82.45	446.8	2182	5211	4887	1087	16.83	4.902	3.258	2.314	1.900	1.875	1.754	1.855	2.736	3.380	3.006	2.571	2.143	2.081	1.831	1.920	1.927	1.953	2.218	2.100	2.009	1.846	1.480	1.347	1.083	0.754	0.651	0.660	0.538	0.569	0.618	0.712	0.926	1.081	1.312	1.680	1.883	2.324	2.888	3.267	3.631	3.437	3.194	3.004	2.485	1.544	1.055	0.976	1.211	1.443	2.076	2.390	1.922
335.0	664.0	446.7	241.5	124.1	75.01	83.54	121.8	206.0	335.7	484.5	550.6	469.6	253.4	121.0	104.3	189.3	310.6	80.95	31.42	111.7	498.3	1248	3953	6966	416.6	17.89	4.612	3.388	2.388	2.048	1.811	1.885	2.413	2.652	2.659	2.055	1.804	1.632	1.575	1.545	1.533	1.653	1.681	1.593	1.696	1.539	1.221	1.108	0.957	0.735	0.626	0.673	0.542	0.490	0.620	0.621	0.750	0.871	1.048	1.206	1.402	1.756	2.049	2.264	2.448	2.454	2.419	2.040	1.632	1.169	0.925	0.861	0.640	0.745	0.893	1.094	1.845
340.0	522.9	371.5	213.1	109.1	72.44	67.66	94.77	157.9	255.5	362.8	414.2	361.0	205.4	100.7	63.75	80.61	245.2	233.5	43.60	35.24	122.2	291.0	1076	5563	5938	348.2	8.180	3.929	3.146	2.408	1.879	2.202	2.278	2.339	2.346	1.691	1.730	1.415	1.407	1.233	1.367	1.312	1.338	1.427	1.353	1.341	1.070	0.935	0.897	0.672	0.615	0.614	0.500	0.517	0.549	0.479	0.603	0.824	0.912	0.838	1.185	1.298	1.424	1.645	1.905	1.791	1.768	1.771	1.250	1.070	0.865	0.739	0.628	0.500	0.555	0.618	0.955
345.0	406.0	311.5	187.8	103.3	64.25	60.01	75.87	122.0	192.0	271.5	318.5	282.0	173.3	86.85	52.65	42.12	107.8	266.1	87.05	22.96	37.48	75.52	252.6	1661	6248	3388	50.79	5.507	3.675	2.656	2.179	2.080	2.061	2.345	1.948	1.654	1.452	1.312	1.274	1.134	1.241	1.134	1.216	1.146	1.201	1.057	0.949	0.866	0.848	0.671	0.548	0.609	0.484	0.517	0.534	0.507	0.529	0.673	0.772	0.791	1.045	1.021	1.211	1.301	1.539	1.468	1.322	1.372	1.113	0.769	0.656	0.587	0.612	0.448	0.418	0.520	0.538
350.0	318.4	255.2	162.3	96.16	61.78	51.10	58.35	87.73	138.5	193.6	229.1	210.0	134.8	75.39	44.69	30.32	41.62	115.7	184.5	106.7	25.83	24.99	65.12	381.1	1810	4312	4188	1047	16.54	3.697	2.725	2.361	2.180	2.187	1.759	1.502	1.404	1.241	1.236	0.981	1.027	0.927	0.992	0.998	0.962	0.870	0.808	0.746	0.704	0.630	0.515	0.578	0.498	0.522	0.511	0.500	0.469	0.650	0.608	0.700	0.798	0.813	0.961	0.964	1.154	1.117	1.055	1.072	0.805	0.663	0.573	0.454	0.475	0.398	0.415	0.432	0.411
355.0	245.7	201.0	141.1	82.20	52.75	42.89	44.93	60.03	97.72	136.0	159.3	151.7	103.5	63.71	37.45	25.15	21.51	37.44	80.83	181.5	70.26	17.13	21.26	91.83	410.4	1012	2920	5620	400.1	18.63	3.747	2.844	2.209	2.195	1.623	1.519	1.322	1.073	1.052	1.006	0.927	0.847	0.900	0.890	0.843	0.893	0.657	0.710	0.522	0.559	0.473	0.514	0.451	0.431	0.376	0.379	0.455	0.512	0.485	0.557	0.662	0.730	0.728	0.643	0.889	0.839	0.757	0.762	0.626	0.613	0.519	0.458	0.441	0.427	0.431	0.345	0.358
360.0	213.8	154.4	110.8	73.43	47.59	39.51	36.44	50.08	74.85	104.2	125.6	119.3	87.68	53.91	34.18	22.74	17.28	17.28	28.87	109.9	164.9	47.52	11.16	26.35	97.99	233.0	755.4	3994	5297	349.9	9.741	3.641	2.810	2.159	1.800	1.316	1.296	1.159	1.107	0.888	0.987	0.859	0.841	0.861	0.740	0.730	0.641	0.605	0.556	0.489	0.466	0.533	0.416	0.457	0.447	0.431	0.431	0.510	0.468	0.531	0.472	0.557	0.650	0.606	0.678	0.735	0.736	0.610	0.536	0.563	0.405	0.394	0.451	0.412	0.406	0.361	0.416
365.0	182.7	147.2	102.5	68.76	49.12	34.46	31.09	42.75	61.01	83.38	104.5	99.24	73.59	46.45	30.35	20.57	14.50	11.92	13.87	40.78	141.2	123.5	20.87	11.15	27.56	58.27	176.4	1120	4876	3214	50.92	5.959	3.089	2.667	1.991	1.457	1.363	1.197	1.111	0.851	0.969	0.814	0.743	0.802	0.747	0.705	0.585	0.568	0.585	0.486	0.455	0.517	0.388	0.412	0.376	0.408	0.426	0.454	0.463	0.463	0.550	0.517	0.521	0.598	0.622	0.614	0.615	0.612	0.622	0.482	0.364	0.420	0.387	0.344	0.365	0.344	0.349
370.0	147.0	112.6	86.97	58.39	41.96	29.42	28.16	32.41	47.43	63.88	80.18	78.78	60.57	40.74	26.27	18.41	12.67	10.12	8.999	15.30	53.03	122.7	91.23	22.33	10.80	18.00	45.31	257.0	1347	3544	3897	1135	16.90	3.382	2.462	1.774	1.470	1.250	1.017	0.895	0.927	0.816	0.760	0.780	0.626	0.680	0.599	0.505	0.532	0.424	0.433	0.472	0.374	0.398	0.431	0.332	0.427	0.423	0.448	0.449	0.450	0.458	0.474	0.481	0.513	0.570	0.513	0.533	0.486	0.480	0.350	0.356	0.412	0.419	0.386	0.346	0.346
375.0	123.7	97.93	75.75	50.19	36.03	27.33	22.51	24.03	35.01	48.35	63.52	62.00	49.77	33.69	22.00	15.57	11.52	8.722	7.346	8.161	16.72	43.32	111.5	90.59	15.54	7.765	14.69	62.03	305.7	819.6	2394	5647	1560	20.63	3.678	2.117	1.774	1.478	1.033	0.919	0.856	0.858	0.832	0.711	0.637	0.640	0.582	0.567	0.509	0.505	0.410	0.456	0.398	0.469	0.350	0.332	0.480	0.375	0.423	0.461	0.377	0.453	0.460	0.468	0.387	0.465	0.441	0.443	0.462	0.368	0.363	0.335	0.522	0.405	0.430	0.371	0.275
380.0	106.2	87.08	62.39	45.17	34.20	25.12	18.07	22.60	28.81	40.60	50.69	53.27	43.31	29.87	20.54	14.73	10.69	8.772	6.661	6.201	7.898	15.30	58.20	123.8	48.78	7.477	7.451	18.10	73.33	188.7	606.9	3699	5068	319.2	10.50	2.718	1.854	1.576	1.174	1.007	1.076	0.713	0.822	0.672	0.669	0.681	0.545	0.562	0.485	0.411	0.405	0.409	0.416	0.394	0.347	0.326	0.359	0.394	0.371	0.402	0.306	0.344	0.439	0.375	0.403	0.481	0.477	0.456	0.420	0.376	0.365	0.393	0.380	0.351	0.334	0.338	0.351
385.0	90.61	72.38	55.52	43.59	30.11	22.35	17.03	17.96	23.43	33.00	43.59	49.45	39.30	27.23	18.50	12.53	9.545	7.842	6.124	5.292	5.312	7.532	21.21	86.20	104.3	24.59	5.152	7.906	20.77	46.86	141.6	1004	4125	4297	240.6	4.149	2.297	1.734	1.318	1.176	1.007	0.740	0.876	0.793	0.737	0.648	0.442	0.513	0.419	0.446	0.403	0.392	0.335	0.435	0.369	0.307	0.298	0.402	0.422	0.372	0.382	0.313	0.357	0.354	0.360	0.422	0.407	0.401	0.333	0.378	0.418	0.404	0.322	0.391	0.293	0.384	0.372
390.0	79.83	71.88	51.21	36.15	26.37	19.96	16.16	16.34	20.27	27.92	35.90	41.74	33.21	24.65	16.32	11.35	9.036	6.956	5.424	4.946	4.590	4.767	8.173	29.87	80.66	74.37	22.75	5.391	8.139	14.59	36.02	229.3	1106	3249	3204	869.6	14.36	2.435	1.662	1.344	1.144	0.868	0.884	0.832	0.656	0.757	0.570	0.557	0.441	0.420	0.407	0.437	0.348	0.383	0.395	0.333	0.343	0.320	0.354	0.346	0.360	0.327	0.316	0.305	0.358	0.412	0.418	0.361	0.354	0.351	0.373	0.380	0.348	0.363	0.399	0.386	0.345
395.0	73.85	61.13	53.43	37.48	25.54	18.52	14.98	14.98	18.16	21.98	30.18	35.82	30.59	21.11	14.16	10.21	8.503	6.509	5.582	4.866	4.275	3.677	4.783	10.12	27.09	71.90	72.41	15.55	4.732	6.323	11.70	55.01	250.3	746.4	1915	3817	1232	17.51	2.306	1.715	1.431	1.009	1.020	0.910	0.716	0.708	0.611	0.493	0.456	0.442	0.443	0.408	0.419	0.397	0.341	0.346	0.320	0.342	0.304	0.390	0.375	0.350	0.328	0.294	0.391	0.373	0.320	0.376	0.366	0.384	0.315	0.386	0.374	0.345	0.389	0.506	0.437
400.0	68.44	57.34	45.86	33.05	20.25	18.61	13.44	13.01	14.97	18.76	23.29	30.91	26.95	20.25	13.03	9.790	7.541	6.012	5.297	4.795	3.818	3.675	4.215	5.051	9.689	34.10	85.88	45.54	7.210	4.315	5.405	16.04	59.19	170.7	481.2	2463	3554	271.8	8.355	2.031	1.547	1.272	1.149	0.924	0.758	0.651	0.599	0.537	0.443	0.421	0.478	0.451	0.359	0.398	0.354	0.311	0.326	0.365	0.336	0.347	0.364	0.351	0.358	0.320	0.362	0.352	0.270	0.348	0.372	0.374	0.285	0.259	0.325	0.259	0.300	0.350	0.431
405.0	61.42	56.66	43.61	29.53	19.86	17.69	11.62	11.38	12.33	18.94	22.92	27.51	24.60	18.74	12.48	9.055	7.059	5.548	4.901	4.735	4.082	3.513	3.933	3.763	4.746	12.45	53.66	78.15	24.33	4.323	3.938	6.654	16.45	41.35	111.4	668.8	2807	2346	205.8	3.457	1.772	1.273	1.146	1.047	0.821	0.679	0.556	0.598	0.512	0.407	0.501	0.443	0.399	0.355	0.397	0.325	0.312	0.458	0.368	0.382	0.422	0.302	0.359	0.353	0.320	0.375	0.357	0.298	0.378	0.319	0.317	0.343	0.279	0.305	0.318	0.356	0.407
410.0	58.32	46.28	38.60	25.23	21.94	16.03	11.75	9.824	11.38	16.24	20.32	23.37	21.69	16.29	11.66	8.294	6.404	5.486	4.589	4.033	3.804	3.450	3.377	3.304	3.436	5.336	18.40	54.50	59.51	20.70	3.927	4.124	6.329	12.14	27.70	152.5	745.8	2084	2423	765.6	13.20	1.726	1.511	1.218	0.834	0.705	0.613	0.560	0.545	0.405	0.423	0.421	0.381	0.400	0.339	0.288	0.349	0.422	0.344	0.312	0.347	0.304	0.350	0.379	0.330	0.356	0.346	0.342	0.312	0.308	0.339	0.386	0.335	0.264	0.300	0.298	0.358
415.0	54.00	39.67	34.07	26.28	20.75	14.66	11.73	9.385	11.70	13.22	18.04	20.05	17.68	15.18	10.73	7.230	5.880	5.194	4.354	3.212	3.447	3.243	2.902	2.822	2.655	3.134	6.710	17.89	50.60	54.30	14.94	3.222	3.399	5.142	8.915	36.42	168.7	479.5	1376	2951	273.6	15.98	2.124	1.413	0.999	0.747	0.634	0.572	0.539	0.443	0.437	0.391	0.392	0.333	0.368	0.298	0.356	0.383	0.390	0.437	0.322	0.308	0.323	0.381	0.341	0.295	0.337	0.326	0.289	0.320	0.299	0.370	0.271	0.270	0.279	0.340	0.320
420.0	49.68	36.79	31.16	22.75	19.55	14.77	11.15	8.730	10.46	11.80	16.37	19.10	15.32	12.83	9.126	6.966	5.923	4.725	3.936	3.394	3.263	3.057	2.612	2.718	2.651	2.632	3.553	6.542	23.71	61.42	39.14	6.180	2.631	3.127	4.294	10.34	39.75	109.7	345.8	1861	2219	251.7	8.351	1.711	1.164	0.849	0.680	0.670	0.518	0.447	0.418	0.492	0.394	0.379	0.366	0.336	0.360	0.341	0.328	0.411	0.279	0.298	0.290	0.404	0.363	0.332	0.361	0.384	0.374	0.323	0.353	0.318	0.294	0.334	0.295	0.336	0.344
425.0	62.86	35.70	28.83	23.52	16.43	14.21	9.720	7.604	9.220	10.76	15.04	17.01	14.80	11.30	9.199	6.096	4.925	4.593	3.757	3.380	2.885	3.021	2.675	2.516	2.376	2.460	2.528	3.653	8.997	36.84	57.40	19.39	3.094	2.214	2.935	4.613	10.92	26.63	80.31	502.8	2050	2123	200.2	2.977	1.425	1.068	0.787	0.777	0.575	0.398	0.409	0.480	0.356	0.415	0.365	0.313	0.336	0.359	0.368	0.294	0.269	0.375	0.274	0.318	0.334	0.328	0.345	0.283	0.328	0.286	0.324	0.311	0.285	0.286	0.305	0.336	0.290
430.0	440.4	40.02	26.58	22.40	15.77	13.14	10.43	7.887	9.491	10.07	13.22	14.90	12.68	10.29	7.090	5.507	4.528	4.107	3.139	3.032	2.885	2.752	2.627	2.651	2.454	2.350	2.261	2.455	3.988	12.95	38.15	43.81	15.31	2.872	2.119	2.716	4.456	7.987	19.88	114.7	556.1	1697	2397	701.1	11.69	1.397	0.993	0.876	0.588	0.459	0.499	0.483	0.356	0.383	0.371	0.342	0.395	0.401	0.399	0.298	0.277	0.345	0.293	0.351	0.359	0.320	0.328	0.297	0.302	0.258	0.286	0.311	0.330	0.314	0.252	0.329	0.308
435.0	1556	77.93	24.57	20.32	13.94	10.47	11.05	9.169	8.632	9.688	12.47	13.46	11.68	9.818	6.305	4.819	4.162	3.780	3.040	3.024	2.671	2.343	2.471	2.524	2.314	2.064	2.001	2.206	2.405	4.643	12.90	35.02	39.26	10.74	1.972	1.926	2.407	3.980	6.152	27.22	125.7	389.9	1437	2963	256.8	12.82	1.247	1.061	0.702	0.629	0.536	0.475	0.448	0.363	0.448	0.409	0.383	0.409	0.354	0.283	0.280	0.375	0.271	0.292	0.324	0.330	0.303	0.277	0.317	0.254	0.275	0.299	0.294	0.282	0.263	0.259	0.281
440.0	2502	325.3	28.55	18.67	14.94	10.99	9.955	8.210	7.779	8.384	11.09	12.97	11.26	7.608	5.780	4.427	4.102	3.579	2.889	2.758	2.646	2.235	2.328	2.388	2.328	1.865	1.944	2.019	2.085	2.567	4.948	16.34	42.13	26.07	4.601	1.523	1.835	2.403	3.149	7.490	29.69	89.13	369.9	2021	2079	214.4	5.205	1.320	0.947	0.728	0.635	0.473	0.506	0.396	0.431	0.400	0.429	0.355	0.368	0.365	0.299	0.353	0.340	0.316	0.360	0.296	0.329	0.278	0.313	0.355	0.313	0.254	0.265	0.257	0.274	0.285	0.307
445.0	2556	1012	33.45	17.84	15.72	11.25	9.839	7.586	7.223	8.091	10.36	11.04	10.06	7.148	5.876	4.719	3.466	3.252	2.996	2.791	2.499	2.288	2.353	2.262	2.062	1.831	1.954	1.969	1.879	2.051	2.856	6.545	26.63	38.35	14.26	2.106	1.473	1.765	2.238	3.352	8.009	21.52	84.94	566.0	2058	1872	29.56	2.534	1.232	0.853	0.703	0.723	0.494	0.468	0.399	0.396	0.434	0.405	0.342	0.387	0.364	0.373	0.320	0.352	0.292	0.357	0.372	0.318	0.271	0.321	0.237	0.280	0.245	0.292	0.276	0.288	0.388
450.0	1456	2190	311.1	16.96	12.90	10.85	9.909	7.052	7.496	7.234	8.640	9.788	8.747	6.900	5.196	4.086	3.579	3.096	2.862	2.502	2.322	2.165	2.184	2.022	1.951	1.709	1.984	1.927	1.811	1.738	2.034	3.039	9.340	26.00	28.94	10.23	1.949	1.460	1.463	2.135	3.400	6.181	20.85	128.7	567.4	1590	1781	570.4	9.572	1.181	0.846	0.748	0.581	0.523	0.504	0.437	0.473	0.454	0.348	0.343	0.356	0.374	0.340	0.341	0.319	0.336	0.337	0.281	0.306	0.319	0.291	0.336	0.294	0.319	0.298	0.306	0.312
455.0	429.6	2234	1210	37.71	12.50	10.44	9.621	7.273	6.765	7.252	7.806	8.546	8.285	7.080	4.776	3.736	3.307	2.682	2.335	2.069	2.022	1.883	1.950	1.664	1.790	1.681	1.535	1.915	1.796	1.512	1.781	1.804	3.341	8.757	23.32	25.16	7.603	1.480	1.185	1.459	2.206	3.079	6.074	30.15	128.0	367.2	1009	2282	210.7	10.57	1.183	0.944	0.697	0.596	0.567	0.478	0.513	0.415	0.414	0.353	0.347	0.327	0.317	0.325	0.282	0.365	0.364	0.292	0.295	0.286	0.295	0.337	0.309	0.289	0.350	0.283	0.291
460.0	138.6	1375	2257	229.2	11.78	8.930	9.013	8.031	6.420	7.421	7.352	7.860	6.817	5.209	4.264	3.550	2.807	2.314	2.054	2.035	2.138	1.884	1.824	1.777	1.917	1.556	1.644	1.537	1.624	1.529	1.521	1.453	1.872	3.322	11.68	26.06	17.22	3.210	1.077	1.211	1.385	2.199	2.817	7.888	29.99	83.49	254.0	1485	1703	169.8	6.344	1.241	0.779	0.597	0.615	0.500	0.510	0.503	0.387	0.431	0.354	0.337	0.264	0.353	0.314	0.365	0.345	0.282	0.263	0.286	0.274	0.280	0.313	0.283	0.319	0.297	0.263
465.0	92.34	548.0	2547	793.5	17.78	9.321	7.520	7.205	6.750	6.031	7.067	7.326	6.175	4.921	4.085	3.330	2.865	2.394	2.269	2.271	1.709	1.980	1.797	1.740	1.720	1.463	1.559	1.394	1.533	1.600	1.548	1.481	1.592	1.857	4.681	16.30	23.55	9.011	1.350	1.029	1.226	1.588	2.261	2.955	7.864	20.02	58.58	408.2	1698	1432	144.0	2.730	1.152	0.762	0.655	0.640	0.543	0.551	0.426	0.413	0.374	0.360	0.337	0.381	0.376	0.277	0.302	0.284	0.278	0.300	0.265	0.325	0.381	0.251	0.270	0.290	0.236
470.0	127.5	167.1	1472	2091	222.4	11.60	8.037	7.518	6.578	6.075	6.142	6.342	5.396	4.163	3.671	3.032	2.586	2.203	2.049	1.951	1.681	1.597	1.456	1.639	1.496	1.435	1.481	1.291	1.486	1.433	1.459	1.300	1.109	1.242	1.900	6.110	16.07	17.34	6.545	1.398	0.911	1.092	1.618	2.031	2.892	5.549	14.36	92.62	463.5	1229	1466	512.3	9.987	1.108	0.883	0.653	0.613	0.545	0.470	0.384	0.392	0.425	0.352	0.384	0.368	0.253	0.355	0.300	0.304	0.311	0.285	0.350	0.315	0.305	0.265	0.246	0.265
475.0	182.9	76.48	424.1	2218	1096	26.71	8.074	6.765	6.423	5.619	5.364	5.274	4.516	4.127	3.235	2.849	2.336	2.104	1.887	1.536	1.478	1.441	1.529	1.559	1.591	1.355	1.165	1.270	1.253	1.258	1.285	1.206	0.911	0.944	1.129	2.182	5.669	14.44	14.91	4.617	0.927	0.834	0.993	1.452	1.797	2.229	3.936	21.57	104.3	280.6	715.2	1657	212.3	12.83	1.035	0.797	0.725	0.588	0.528	0.436	0.415	0.433	0.321	0.331	0.330	0.304	0.290	0.241	0.309	0.277	0.315	0.302	0.299	0.282	0.252	0.281	0.273
480.0	179.1	82.28	124.4	1373	1990	168.1	9.920	6.952	6.245	6.012	5.068	4.924	3.903	3.710	3.103	2.573	2.265	1.818	2.010	1.431	1.680	1.276	1.546	1.228	1.362	1.325	1.175	1.060	1.333	1.016	1.151	1.039	0.825	0.911	1.009	1.104	2.139	7.062	16.52	10.74	2.446	0.808	0.887	1.058	1.346	1.800	1.717	5.624	24.20	63.73	173.9	944.1	1413	199.4	6.320	0.933	0.822	0.730	0.580	0.455	0.446	0.419	0.314	0.366	0.303	0.296	0.398	0.234	0.249	0.382	0.326	0.271	0.226	0.309	0.334	0.247	0.232
485.0	156.1	131.4	50.97	576.9	2295	553.1	10.72	6.992	7.525	6.317	5.364	5.454	4.420	3.378	2.725	2.388	2.000	1.697	1.756	1.479	1.469	1.246	1.406	1.402	1.182	1.200	1.068	1.009	1.215	1.093	1.010	1.085	0.766	0.957	0.873	0.748	1.230	2.777	10.94	14.63	5.834	1.068	0.839	0.891	1.011	1.491	1.274	1.905	6.235	15.10	39.93	251.4	1103	1312	155.1	3.149	1.149	0.790	0.560	0.534	0.398	0.411	0.386	0.389	0.369	0.301	0.345	0.252	0.299	0.325	0.326	0.280	0.245	0.245	0.273	0.230	0.250
490.0	94.25	171.8	54.48	158.0	1363	1867	166.8	7.215	7.515	5.667	5.333	4.741	4.450	3.055	2.654	2.204	2.035	1.716	1.505	1.488	1.356	1.306	1.329	1.053	1.253	1.044	1.051	1.081	1.086	1.057	0.990	0.991	0.779	0.871	0.761	0.681	0.817	1.357	4.277	10.82	11.46	4.447	1.031	0.735	0.735	1.019	1.249	1.338	2.041	4.062	9.735	57.16	288.5	843.5	1245	520.4	13.16	1.050	0.720	0.515	0.508	0.416	0.371	0.375	0.325	0.320	0.417	0.285	0.279	0.297	0.295	0.313	0.296	0.284	0.331	0.308	0.250
495.0	42.49	145.0	103.0	55.36	408.8	2160	921.1	16.00	8.234	5.576	5.306	4.849	3.882	3.102	2.577	1.965	1.868	1.511	1.285	1.241	1.185	1.244	1.222	1.010	1.189	1.170	0.976	0.982	0.935	0.941	0.993	0.911	0.759	0.839	0.690	0.654	0.682	0.911	1.670	4.204	10.22	10.20	3.207	0.836	0.597	0.743	0.955	1.223	1.325	1.505	2.850	13.55	65.05	191.5	607.1	1511	825.8	15.59	0.964	0.705	0.610	0.459	0.433	0.370	0.389	0.459	0.372	0.319	0.279	0.305	0.269	0.263	0.326	0.260	0.310	0.267	0.285
500.0	33.20	91.78	143.7	38.34	111.0	1412	1849	107.1	7.532	6.400	5.369	4.733	3.231	2.828	1.873	2.101	1.530	1.409	1.145	1.361	1.206	1.061	1.058	0.939	1.178	0.970	0.803	0.976	0.952	0.856	1.017	0.731	0.725	0.810	0.621	0.548	0.557	0.654	0.899	1.632	5.592	10.76	6.906	1.647	0.568	0.574	0.851	0.863	1.277	1.026	1.217	3.619	15.25	43.54	147.3	798.0	1753	227.5	7.884	0.830	0.652	0.451	0.468	0.436	0.414	0.399	0.330	0.275	0.318	0.332	0.324	0.308	0.224	0.270	0.288	0.228	0.256
505.0	33.11	49.45	152.9	51.24	37.89	606.6	2286	366.8	9.503	6.601	4.991	4.939	3.432	2.732	2.149	2.001	1.511	1.300	1.205	1.135	1.169	0.997	1.079	0.993	0.954	0.933	0.986	0.791	0.928	0.905	1.080	0.742	0.807	0.776	0.711	0.494	0.717	0.657	0.653	0.956	2.393	7.899	9.853	3.803	0.834	0.470	0.540	0.597	0.983	1.118	0.857	1.392	4.074	10.40	33.82	205.1	1119	1543	179.8	3.102	0.775	0.570	0.463	0.377	0.470	0.389	0.333	0.337	0.304	0.342	0.287	0.361	0.241	0.261	0.271	0.287	0.260
510.0	29.38	28.04	101.6	105.3	28.16	164.0	1455	1704	136.1	6.763	5.075	4.814	3.445	2.557	2.310	1.958	1.579	1.436	1.232	1.282	1.059	1.054	0.903	0.934	0.895	0.887	0.802	0.882	0.830	0.883	0.802	0.841	0.655	0.752	0.628	0.488	0.541	0.661	0.524	0.651	1.078	3.182	7.901	7.524	2.940	0.844	0.504	0.568	0.730	0.966	0.991	0.951	1.429	2.909	8.293	46.74	282.8	908.5	1078	420.2	12.36	0.789	0.607	0.459	0.496	0.415	0.315	0.315	0.318	0.315	0.270	0.308	0.288	0.290	0.271	0.276	0.289
515.0	36.34	21.51	45.35	138.2	47.98	51.74	438.2	2453	1021	15.95	5.653	4.691	3.244	2.563	1.967	1.763	1.453	1.282	1.205	1.242	0.962	0.948	0.861	0.817	0.973	0.785	0.790	0.774	0.725	0.808	0.668	0.753	0.641	0.620	0.552	0.485	0.471	0.530	0.465	0.462	0.627	1.265	3.331	7.541	6.458	2.404	0.576	0.535	0.537	0.633	0.852	1.164	0.806	1.152	2.486	11.07	63.88	204.8	434.7	1152	248.5	16.78	0.834	0.693	0.571	0.495	0.350	0.269	0.285	0.356	0.287	0.323	0.242	0.260	0.280	0.267	0.361
520.0	32.56	18.12	24.55	114.2	84.04	26.38	116.2	1838	2425	110.5	6.507	4.709	3.302	2.409	1.986	1.852	1.485	1.287	1.060	1.064	0.892	1.104	1.049	0.850	0.903	0.865	0.778	0.746	0.694	0.761	0.721	0.696	0.618	0.659	0.568	0.538	0.508	0.517	0.410	0.496	0.474	0.744	1.425	4.622	7.250	4.448	1.112	0.559	0.495	0.486	0.644	1.107	0.878	0.731	1.090	3.057	15.02	46.48	101.9	557.1	1090	230.3	9.568	0.761	0.551	0.471	0.429	0.336	0.282	0.314	0.296	0.272	0.366	0.263	0.282	0.236	0.377
525.0	29.99	17.63	18.35	76.94	116.7	31.11	39.61	812.6	3372	299.4	7.465	4.943	3.219	2.746	2.204	1.710	1.440	1.414	1.113	1.156	0.875	0.986	0.844	0.831	0.867	0.748	0.578	0.722	0.662	0.832	0.797	0.710	0.640	0.686	0.524	0.507	0.545	0.449	0.419	0.457	0.507	0.528	0.834	2.055	5.927	6.332	2.570	0.680	0.452	0.375	0.470	0.801	1.105	0.796	0.734	1.164	3.911	11.09	23.69	136.4	636.4	1003	186.8	4.029	0.699	0.578	0.451	0.389	0.317	0.417	0.276	0.226	0.304	0.265	0.241	0.293	0.294
530.0	27.10	17.43	14.57	35.28	116.6	66.56	24.28	216.7	2254	1778	105.1	5.575	3.451	2.753	2.212	2.017	1.568	1.313	1.038	0.998	1.017	0.904	0.774	0.842	0.746	0.706	0.791	0.715	0.753	0.658	0.828	0.652	0.542	0.614	0.467	0.468	0.459	0.415	0.395	0.419	0.434	0.509	0.523	0.931	2.741	5.361	4.935	1.885	0.587	0.335	0.401	0.542	0.710	1.021	0.876	0.719	1.442	2.996	5.921	31.08	155.2	503.2	756.0	374.1	13.86	0.947	0.583	0.398	0.342	0.413	0.289	0.284	0.275	0.270	0.276	0.250	0.270
535.0	27.14	22.44	14.48	16.74	73.28	111.4	29.81	60.84	672.6	2577	778.7	9.525	3.632	2.777	2.228	1.820	1.355	1.267	1.068	0.994	0.962	0.800	0.749	0.830	0.729	0.585	0.651	0.756	0.764	0.671	0.735	0.489	0.495	0.510	0.546	0.437	0.418	0.431	0.327	0.388	0.388	0.487	0.514	0.587	1.013	2.406	5.112	4.152	1.426	0.415	0.387	0.453	0.422	0.721	1.115	0.775	0.709	1.102	1.829	7.517	35.20	113.1	260.4	813.6	615.5	19.94	0.893	0.566	0.439	0.391	0.354	0.323	0.330	0.277	0.280	0.241	0.304
540.0	30.45	20.62	14.85	11.92	41.17	129.7	48.54	26.71	171.9	1811	1837	65.66	4.411	2.794	2.265	1.540	1.392	1.017	1.030	1.031	0.878	0.802	0.832	0.858	0.966	0.664	0.632	0.626	0.603	0.618	0.696	0.450	0.584	0.543	0.575	0.453	0.380	0.432	0.358	0.431	0.378	0.373	0.460	0.461	0.537	1.104	3.165	4.932	2.688	0.701	0.425	0.376	0.417	0.476	0.808	1.108	0.715	0.740	0.865	2.164	8.328	25.83	60.06	329.5	997.8	245.0	12.67	0.582	0.565	0.407	0.391	0.343	0.285	0.305	0.240	0.281	0.312
545.0	34.01	23.29	13.08	11.34	25.04	104.6	79.02	20.27	50.96	724.4	2574	218.3	5.562	3.184	2.241	1.721	1.496	1.257	0.929	0.851	0.895	0.795	0.707	0.804	0.717	0.668	0.730	0.619	0.545	0.545	0.546	0.548	0.513	0.552	0.507	0.424	0.415	0.465	0.413	0.372	0.376	0.377	0.482	0.423	0.477	0.688	1.604	4.031	3.709	1.475	0.522	0.374	0.363	0.419	0.633	0.886	0.939	0.574	0.671	0.904	2.372	6.359	14.10	77.71	467.0	845.3	202.2	5.832	0.609	0.478	0.402	0.303	0.291	0.265	0.282	0.309	0.394
550.0	41.10	27.00	15.63	12.73	18.03	56.50	111.4	35.60	28.40	194.8	1654	1597	64.26	3.805	2.625	2.020	1.431	1.115	0.953	1.016	0.885	0.790	0.812	0.726	0.708	0.678	0.565	0.661	0.589	0.572	0.559	0.555	0.552	0.551	0.497	0.418	0.453	0.363	0.451	0.371	0.383	0.395	0.406	0.415	0.475	0.536	0.727	1.919	3.306	2.694	1.144	0.385	0.329	0.371	0.459	0.602	0.950	0.910	0.641	0.577	0.920	1.816	3.636	17.92	109.3	369.8	591.7	260.6	15.35	0.832	0.461	0.304	0.302	0.293	0.309	0.295	0.292
555.0	74.15	36.01	19.17	14.00	15.87	29.66	102.7	82.71	40.48	83.55	505.9	2250	506.1	6.984	2.362	2.005	1.394	1.040	0.921	0.891	0.896	0.932	0.720	0.730	0.716	0.611	0.539	0.671	0.474	0.554	0.518	0.629	0.592	0.592	0.514	0.431	0.457	0.405	0.441	0.406	0.528	0.443	0.305	0.442	0.417	0.457	0.455	0.781	1.818	2.829	2.311	0.899	0.343	0.398	0.394	0.454	0.625	0.967	0.968	0.653	0.528	0.867	1.308	4.524	24.89	83.08	175.9	441.4	261.8	23.44	0.647	0.382	0.355	0.327	0.267	0.301	0.278
560.0	94.88	59.00	29.12	15.08	16.28	25.15	79.27	124.1	69.51	86.86	187.6	1520	1288	39.46	3.225	1.976	1.521	1.177	0.947	0.881	0.849	0.834	0.798	0.772	0.719	0.612	0.520	0.620	0.501	0.541	0.543	0.636	0.612	0.627	0.720	0.555	0.491	0.466	0.501	0.457	0.490	0.536	0.374	0.450	0.477	0.453	0.390	0.492	0.832	2.066	2.730	1.584	0.374	0.373	0.380	0.357	0.461	0.624	1.121	0.964	0.537	0.776	0.781	1.537	6.237	19.28	40.32	157.4	464.9	245.5	14.67	0.517	0.434	0.381	0.304	0.351	0.327
565.0	125.5	81.04	30.93	15.66	16.12	27.51	54.71	151.3	112.7	115.0	143.5	640.5	1845	149.1	4.311	2.182	1.438	1.075	0.923	1.028	0.885	0.763	0.784	0.736	0.680	0.785	0.575	0.567	0.553	0.541	0.584	0.620	0.642	0.748	0.663	0.560	0.514	0.521	0.434	0.536	0.488	0.515	0.468	0.498	0.514	0.460	0.431	0.432	0.426	1.146	2.489	2.050	0.769	0.467	0.348	0.400	0.397	0.471	0.823	1.206	0.890	0.666	0.832	1.068	2.088	5.082	9.897	36.61	191.5	494.7	189.8	6.495	0.593	0.416	0.319	0.334	0.336
570.0	164.0	98.76	42.09	18.12	17.96	27.71	49.82	134.5	176.1	162.7	171.1	266.1	1222	975.8	42.31	2.256	1.558	1.162	1.033	0.939	0.841	0.923	0.772	0.672	0.726	0.772	0.559	0.554	0.515	0.487	0.509	0.607	0.830	0.855	0.819	0.619	0.502	0.532	0.598	0.553	0.534	0.546	0.610	0.625	0.556	0.537	0.480	0.435	0.366	0.556	1.220	1.799	1.327	0.687	0.379	0.445	0.416	0.450	0.696	0.933	1.262	1.024	0.949	1.056	1.290	2.092	3.049	9.023	44.53	181.2	333.2	208.6	15.41	0.566	0.330	0.357	0.332
575.0	201.1	104.9	46.72	18.75	19.28	28.15	52.68	110.6	222.2	221.6	210.1	193.4	393.2	1491	378.0	3.621	2.054	1.452	1.166	0.929	0.831	0.825	0.720	0.667	0.610	0.714	0.434	0.541	0.497	0.578	0.540	0.678	0.984	0.938	0.981	0.670	0.545	0.596	0.659	0.784	0.612	0.733	0.632	0.609	0.596	0.542	0.477	0.431	0.342	0.390	0.539	1.041	1.514	1.191	0.615	0.411	0.415	0.541	0.701	0.761	1.068	1.418	1.245	1.162	1.232	1.431	1.567	2.824	10.68	40.97	90.12	307.5	247.1	20.34	0.447	0.362	0.330
580.0	216.5	125.7	49.42	21.10	23.07	30.69	53.79	103.0	228.0	259.1	234.1	188.1	147.5	1026	969.9	21.62	2.017	1.536	1.135	0.896	0.910	0.835	0.570	0.600	0.599	0.606	0.508	0.524	0.537	0.574	0.529	0.666	0.987	1.228	1.031	0.709	0.653	0.597	0.718	0.706	0.629	0.735	0.689	0.845	0.756	0.629	0.470	0.438	0.304	0.322	0.380	0.576	1.238	1.471	0.883	0.483	0.399	0.574	0.650	0.787	0.987	1.305	1.468	1.231	1.319	1.460	1.353	1.547	3.144	9.784	20.66	103.7	311.8	172.3	11.53	0.446	0.377
585.0	220.2	132.3	49.50	21.63	20.59	29.38	53.87	100.2	209.1	291.6	253.4	190.2	91.33	403.9	1414	98.74	2.584	1.695	1.484	0.951	0.897	0.745	0.651	0.701	0.608	0.582	0.434	0.539	0.486	0.483	0.508	0.675	0.913	1.183	1.063	0.738	0.714	0.540	0.585	0.573	0.649	0.754	0.740	0.765	0.763	0.638	0.494	0.467	0.301	0.294	0.302	0.379	0.865	1.321	1.224	0.589	0.448	0.542	0.592	0.749	0.833	1.203	1.604	1.598	1.414	1.370	1.234	1.278	1.462	2.770	5.044	24.08	121.4	266.8	119.0	4.185	0.455
590.0	234.2	130.9	53.59	21.50	21.35	29.17	52.65	95.24	176.4	289.6	265.6	191.2	75.80	112.5	892.4	683.2	20.51	1.983	1.281	1.128	1.004	0.913	0.698	0.705	0.651	0.569	0.552	0.598	0.503	0.497	0.547	0.599	0.852	1.064	1.171	0.743	0.693	0.577	0.601	0.583	0.605	0.695	0.715	0.732	0.749	0.565	0.536	0.447	0.329	0.303	0.296	0.310	0.482	0.848	1.237	0.930	0.539	0.544	0.585	0.675	0.811	1.007	1.345	1.619	1.568	1.338	1.278	1.120	1.033	1.125	1.484	5.736	28.02	95.39	185.7	116.4	14.76
595.0	212.3	122.7	51.96	19.98	19.66	26.93	48.85	89.42	154.0	245.0	281.3	177.8	71.29	38.88	251.7	1105	98.10	2.593	1.404	1.117	1.048	0.857	0.735	0.641	0.620	0.566	0.717	0.574	0.517	0.535	0.614	0.696	0.881	0.921	1.024	0.840	0.703	0.542	0.557	0.564	0.690	0.755	0.829	0.632	0.652	0.633	0.475	0.365	0.318	0.310	0.248	0.324	0.320	0.473	0.981	1.102	0.760	0.646	0.558	0.679	0.759	0.861	1.113	1.429	1.842	1.525	1.166	1.007	0.965	0.708	0.658	1.558	6.488	21.58	49.21	154.0	165.9
600.0	212.8	113.7	57.33	19.18	17.90	28.59	43.91	83.47	142.5	213.0	275.6	173.1	67.31	22.59	64.01	780.8	590.2	9.589	1.502	1.092	1.042	0.951	0.783	0.654	0.631	0.535	0.555	0.507	0.540	0.529	0.517	0.685	0.840	0.944	0.940	0.733	0.871	0.634	0.583	0.489	0.597	0.641	0.722	0.784	0.624	0.551	0.431	0.453	0.331	0.253	0.248	0.304	0.257	0.327	0.543	0.921	0.892	0.719	0.569	0.566	0.682	0.850	1.024	1.190	1.504	1.545	1.259	1.064	0.822	0.691	0.482	0.579	1.724	5.100	11.34	50.64	180.6
605.0	190.2	107.3	45.01	19.88	18.24	24.44	41.71	77.41	129.3	183.8	244.9	181.5	63.71	17.17	19.18	308.1	954.0	59.89	1.626	1.179	1.014	0.888	0.845	0.705	0.621	0.604	0.603	0.451	0.455	0.529	0.537	0.582	0.841	0.897	0.918	0.728	0.890	0.734	0.559	0.559	0.590	0.673	0.714	0.657	0.670	0.551	0.521	0.473	0.348	0.253	0.228	0.282	0.289	0.264	0.382	0.763	0.881	0.792	0.595	0.552	0.647	0.779	0.902	1.067	1.311	1.291	1.204	0.999	0.677	0.482	0.412	0.394	0.676	1.367	2.757	11.68	67.37
610.0	164.8	95.45	41.33	22.28	15.80	22.08	37.18	66.59	110.9	154.3	195.2	178.4	60.17	15.38	8.355	78.83	670.6	447.8	9.153	1.279	0.969	0.938	0.730	0.662	0.624	0.629	0.536	0.497	0.548	0.515	0.475	0.572	0.706	0.802	0.892	0.648	0.656	0.733	0.512	0.539	0.595	0.635	0.658	0.594	0.588	0.472	0.464	0.377	0.306	0.215	0.213	0.232	0.243	0.292	0.325	0.470	0.756	0.868	0.733	0.624	0.611	0.686	0.823	0.885	1.111	1.102	1.157	1.018	0.664	0.540	0.351	0.387	0.409	0.519	0.851	2.879	15.65
615.0	144.6	91.82	40.18	19.77	15.14	17.57	32.09	55.87	95.12	131.4	150.7	155.8	63.58	13.47	5.594	19.88	197.0	738.5	70.84	1.515	1.115	0.909	0.874	0.722	0.572	0.653	0.537	0.482	0.524	0.511	0.501	0.512	0.698	0.881	0.822	0.629	0.548	0.723	0.681	0.511	0.593	0.511	0.541	0.512	0.525	0.413	0.397	0.371	0.270	0.265	0.239	0.220	0.270	0.239	0.271	0.366	0.492	0.745	0.796	0.700	0.661	0.676	0.726	0.772	0.871	0.817	0.855	0.962	0.829	0.553	0.296	0.313	0.284	0.385	0.376	0.933	3.705
620.0	133.8	77.05	39.61	19.02	13.57	14.74	29.09	51.94	80.21	115.0	125.5	128.2	71.89	14.02	4.753	6.731	50.19	539.1	336.9	4.383	1.085	0.887	0.697	0.801	0.646	0.547	0.455	0.546	0.509	0.492	0.490	0.528	0.606	0.699	0.794	0.559	0.467	0.630	0.714	0.605	0.548	0.431	0.487	0.483	0.516	0.466	0.400	0.322	0.269	0.267	0.245	0.218	0.211	0.207	0.215	0.305	0.386	0.554	0.717	0.689	0.615	0.577	0.667	0.661	0.733	0.735	0.697	0.767	0.819	0.616	0.368	0.297	0.268	0.328	0.299	0.420	1.055
625.0	123.4	68.75	33.12	19.62	12.27	16.00	25.62	44.42	71.16	101.3	107.2	100.7	72.72	15.70	4.589	3.542	13.88	224.0	580.1	31.80	1.149	0.902	0.699	0.662	0.775	0.575	0.546	0.581	0.552	0.379	0.451	0.534	0.688	0.659	0.701	0.479	0.459	0.505	0.574	0.660	0.408	0.470	0.413	0.411	0.469	0.481	0.340	0.292	0.300	0.242	0.212	0.232	0.212	0.196	0.226	0.254	0.305	0.428	0.602	0.652	0.651	0.543	0.561	0.729	0.680	0.812	0.725	0.617	0.629	0.710	0.461	0.267	0.266	0.334	0.259	0.293	0.471
630.0	114.1	59.28	30.19	16.59	11.87	12.85	21.42	37.54	59.02	81.08	89.47	76.80	62.60	25.27	4.263	2.692	4.866	57.67	439.3	286.4	5.047	1.072	0.870	0.822	0.656	0.581	0.540	0.470	0.492	0.443	0.384	0.499	0.597	0.637	0.597	0.539	0.516	0.427	0.439	0.553	0.465	0.412	0.462	0.386	0.392	0.398	0.339	0.283	0.313	0.221	0.205	0.234	0.236	0.191	0.306	0.264	0.300	0.309	0.427	0.553	0.645	0.523	0.584	0.579	0.664	0.690	0.564	0.612	0.547	0.551	0.556	0.313	0.242	0.291	0.290	0.256	0.300
635.0	93.67	52.86	26.24	13.81	9.667	10.84	16.15	29.68	49.02	66.75	73.24	60.90	41.14	36.25	6.843	2.324	2.831	14.80	133.1	519.0	53.32	1.339	0.839	0.840	0.731	0.625	0.561	0.467	0.539	0.401	0.368	0.474	0.515	0.584	0.473	0.428	0.539	0.385	0.355	0.454	0.549	0.444	0.416	0.394	0.366	0.330	0.331	0.223	0.272	0.239	0.272	0.255	0.209	0.198	0.262	0.256	0.288	0.309	0.383	0.413	0.490	0.587	0.523	0.529	0.588	0.577	0.515	0.542	0.435	0.338	0.465	0.447	0.342	0.278	0.271	0.263	0.326
640.0	75.31	49.39	24.27	11.98	10.44	10.96	15.13	26.30	39.99	54.42	58.48	50.62	28.71	34.23	11.29	2.487	2.051	4.835	33.65	414.6	250.2	2.865	0.878	1.148	0.612	0.559	0.588	0.386	0.490	0.385	0.415	0.523	0.531	0.537	0.458	0.373	0.416	0.416	0.379	0.349	0.461	0.590	0.466	0.366	0.364	0.289	0.327	0.227	0.270	0.206	0.234	0.246	0.219	0.223	0.242	0.227	0.313	0.411	0.315	0.359	0.466	0.482	0.501	0.483	0.593	0.468	0.482	0.442	0.376	0.321	0.310	0.393	0.479	0.282	0.308	0.270	0.278
645.0	68.47	39.69	20.66	12.13	8.862	10.56	14.38	22.92	34.05	49.12	52.17	42.27	23.46	27.30	18.70	2.472	1.884	2.277	9.186	186.6	465.2	19.41	1.039	0.821	0.735	0.544	0.601	0.401	0.511	0.413	0.482	0.396	0.416	0.529	0.557	0.374	0.368	0.375	0.413	0.355	0.368	0.531	0.510	0.300	0.335	0.306	0.231	0.254	0.217	0.199	0.211	0.218	0.213	0.213	0.300	0.231	0.283	0.269	0.326	0.315	0.395	0.440	0.537	0.420	0.511	0.476	0.467	0.394	0.407	0.315	0.255	0.325	0.444	0.301	0.251	0.239	0.226
650.0	67.85	36.63	18.29	11.66	8.330	9.078	12.32	19.22	29.48	38.46	44.66	36.87	19.02	17.63	23.91	3.384	1.826	2.071	3.401	55.07	487.3	65.92	1.169	0.657	0.761	0.667	0.632	0.574	0.559	0.489	0.486	0.367	0.452	0.435	0.494	0.387	0.392	0.346	0.333	0.367	0.386	0.446	0.525	0.405	0.343	0.301	0.299	0.348	0.214	0.207	0.233	0.164	0.208	0.251	0.264	0.233	0.293	0.245	0.329	0.293	0.346	0.362	0.392	0.393	0.419	0.432	0.367	0.334	0.355	0.269	0.307	0.285	0.398	0.429	0.248	0.237	0.193
