Sample:	'1
File name:	Default_20230713_145757.FD3
Run date:	'14:51:36, 07/13/2023
Operator:	user
Comment:	'

Instrument
Model:	F-2700 FL Spectrophotometer
Serial number:	2190-003
ROM Version:	4J14000 07

Instrument parameters
Measurement type:	3-D scan
Data mode:	Fluorescence
EX  Start WL:	220.0 nm
EX  End WL:	600.0 nm
EX Sampling interval:	5.0 nm
EM  Start WL:	230.0 nm
EM  End WL:	650.0 nm
EM Sampling interval:	5.0 nm
Scan speed:	12000 nm/min
EX Slit:	5.0 nm
EM Slit:	5.0 nm
PMT Voltage:	700 V
Response:	Auto 
Corrected spectra:	Off
Contour interval:	50.000

Peak integration
Integration method:	Rectangular
Sensitivity:	1
Threshold:	1.000

Peaks
No.	ApexEX/EM(nm)	Height(Data)
1	230.0/300.0	4.770
2	245.0/530.0	0.046
3	250.0/365.0	 9145
4	250.0/545.0	6.298
5	255.0/280.0	269.6
6	255.0/555.0	15.44
7	260.0/285.0	361.3
8	260.0/570.0	21.33
9	265.0/290.0	396.7
10	265.0/580.0	30.37
11	270.0/295.0	586.4
12	270.0/590.0	33.48
13	270.0/640.0	-12.73
14	275.0/305.0	717.1
15	275.0/600.0	33.76
16	280.0/310.0	638.5
17	280.0/615.0	28.09
18	285.0/260.0	-15.26
19	285.0/315.0	570.6
20	285.0/490.0	7.754
21	285.0/630.0	13.02
22	290.0/320.0	495.9
23	290.0/520.0	-1.725
24	290.0/640.0	10.80
25	295.0/330.0	382.4
26	300.0/335.0	418.2
27	305.0/340.0	483.8
28	310.0/345.0	438.9
29	315.0/290.0	-5.678
30	315.0/355.0	341.8
31	315.0/595.0	-6.298
32	320.0/240.0	-6.476
33	320.0/360.0	322.1
34	325.0/365.0	247.7
35	330.0/280.0	-5.959
36	330.0/370.0	177.9
37	335.0/305.0	-4.552
38	335.0/375.0	174.6
39	335.0/625.0	-5.151
40	335.0/640.0	-4.920
41	340.0/385.0	173.9
42	345.0/390.0	139.0
43	345.0/575.0	-3.444
44	350.0/395.0	134.9
45	350.0/460.0	19.24
46	355.0/405.0	126.6
47	355.0/545.0	-0.603
48	355.0/615.0	-3.939
49	360.0/410.0	106.2
50	365.0/280.0	-3.768
51	365.0/415.0	103.3
52	365.0/535.0	0.505
53	370.0/305.0	-2.684
54	370.0/425.0	90.09
55	375.0/430.0	73.54
56	380.0/435.0	72.31
57	385.0/440.0	59.88
58	390.0/450.0	48.31
59	390.0/545.0	-0.762
60	395.0/455.0	44.57
61	400.0/460.0	38.63
62	405.0/470.0	30.67
63	410.0/475.0	24.53
64	415.0/480.0	22.11
65	420.0/490.0	18.72
66	425.0/495.0	15.99
67	430.0/505.0	13.60
68	435.0/510.0	10.76
69	440.0/515.0	9.867
70	445.0/525.0	8.488
71	450.0/530.0	6.410
72	455.0/535.0	6.120
73	460.0/545.0	4.120
74	465.0/555.0	3.078
75	470.0/560.0	2.282
76	480.0/575.0	0.022
77	485.0/585.0	-0.364
78	490.0/590.0	-0.831
79	495.0/365.0	23.92
80	495.0/600.0	-1.120
81	500.0/360.0	24.22
82	500.0/605.0	-1.095
83	510.0/280.0	-0.201
84	515.0/285.0	-0.863
85	530.0/290.0	-0.822
86	535.0/295.0	-0.052
87	545.0/300.0	-0.398
88	550.0/305.0	0.191
89	560.0/310.0	-0.691
90	570.0/315.0	-0.576
91	575.0/320.0	-0.544
92	580.0/360.0	-0.466

Data points
	220.0	225.0	230.0	235.0	240.0	245.0	250.0	255.0	260.0	265.0	270.0	275.0	280.0	285.0	290.0	295.0	300.0	305.0	310.0	315.0	320.0	325.0	330.0	335.0	340.0	345.0	350.0	355.0	360.0	365.0	370.0	375.0	380.0	385.0	390.0	395.0	400.0	405.0	410.0	415.0	420.0	425.0	430.0	435.0	440.0	445.0	450.0	455.0	460.0	465.0	470.0	475.0	480.0	485.0	490.0	495.0	500.0	505.0	510.0	515.0	520.0	525.0	530.0	535.0	540.0	545.0	550.0	555.0	560.0	565.0	570.0	575.0	580.0	585.0	590.0	595.0	600.0
230.0	-148.9	-51.44	 1609	 1682	69.02	-49.69	-53.40	-44.14	-41.31	-34.49	-32.42	-27.25	-23.49	-19.98	-18.34	-12.71	-11.59	-10.82	-10.81	-9.041	-7.750	-7.163	-6.897	-6.769	-5.421	-5.982	-5.350	-4.858	-5.020	-5.143	-4.801	-4.659	-4.563	-3.675	-3.435	-3.098	-3.268	-3.256	-2.649	-2.982	-2.654	-2.887	-2.625	-2.737	-2.748	-2.363	-2.154	-0.992	1.392	1.423	-0.553	-2.183	-2.133	-2.291	-2.096	-2.356	-2.441	-2.260	-2.369	-2.240	-2.104	-2.265	-2.215	-2.220	-2.404	-2.444	-2.329	-2.496	-2.444	-2.427	-2.381	-2.376	-2.335	-2.258	-2.429	-2.550	-2.801
235.0	-138.6	-100.0	474.4	 2315	 1849	126.2	-55.87	-41.96	-41.60	-34.87	-29.18	-26.57	-26.31	-19.65	-14.90	-14.06	-12.26	-9.992	-10.07	-9.058	-6.916	-6.883	-7.441	-6.386	-5.343	-5.694	-5.052	-4.330	-4.774	-4.204	-5.496	-3.566	-4.023	-4.389	-3.334	-3.603	-2.611	-3.012	-3.079	-2.948	-2.839	-2.825	-2.894	-2.552	-2.313	-2.168	-2.288	-1.759	-1.351	0.385	1.609	2.012	-0.362	-1.832	-2.345	-2.151	-2.202	-2.608	-2.281	-2.527	-2.199	-2.299	-2.099	-2.396	-2.123	-2.590	-2.014	-2.224	-2.292	-2.790	-2.910	-2.527	-2.123	-2.447	-2.711	-2.292	-2.221
240.0	-133.9	-120.0	8.447	943.3	 3131	 1724	47.58	-36.94	-37.34	-33.03	-32.08	-26.85	-24.55	-14.98	-15.39	-15.18	-11.66	-10.61	-9.931	-9.385	-6.476	-7.821	-7.175	-6.041	-5.864	-5.089	-4.776	-4.356	-5.741	-5.349	-5.176	-4.803	-3.549	-4.363	-3.579	-3.321	-3.360	-3.188	-2.828	-2.941	-2.786	-2.805	-2.951	-2.541	-2.498	-2.435	-2.173	-2.412	-1.933	-1.315	0.085	2.280	3.883	1.779	-1.117	-1.955	-2.229	-2.333	-2.421	-2.271	-2.427	-2.334	-2.234	-2.793	-2.057	-2.636	-2.338	-1.956	-2.635	-2.558	-2.761	-2.557	-2.370	-2.591	-2.251	-2.555	-2.280
245.0	-171.8	-101.1	-58.52	172.0	 1626	 3754	 1404	3.746	-35.81	-32.05	-35.80	-23.52	-25.92	-17.24	-16.91	-16.00	-15.07	-10.60	-9.598	-9.201	-7.349	-7.114	-5.979	-5.790	-6.609	-5.902	-4.749	-5.085	-5.376	-4.615	-5.048	-4.305	-4.119	-4.109	-3.681	-3.719	-3.187	-3.216	-3.061	-3.061	-3.127	-2.769	-2.869	-3.071	-2.761	-2.444	-2.094	-1.973	-2.131	-1.431	-1.433	-0.849	1.902	4.810	4.238	1.473	-1.737	-2.315	-2.089	-2.348	-2.660	-2.262	-2.579	-2.692	-2.397	-2.765	-2.155	-2.324	-2.603	-1.943	-2.596	-2.217	-1.805	-2.397	-2.264	-2.541	-2.205
250.0	-160.7	-122.9	-64.08	21.69	343.1	 1812	 3905	 2736	302.4	-31.09	-27.88	-24.36	-23.82	-19.11	-16.99	-15.54	-10.94	-9.773	-8.422	-8.545	-7.398	-5.970	-6.082	-6.039	-5.917	-6.040	-5.024	-5.474	-4.955	-5.410	-4.720	-4.910	-4.291	-3.809	-3.701	-3.494	-3.786	-3.165	-3.096	-2.564	-3.088	-2.566	-3.064	-2.336	-2.529	-2.391	-2.139	-2.286	-1.944	-1.689	-1.493	-1.877	-0.896	-0.123	1.860	4.365	4.344	2.521	0.358	-2.238	-2.553	-2.413	-2.627	-2.741	-2.567	-2.572	-2.228	-2.331	-2.625	-2.467	-2.783	-2.499	-2.086	-2.486	-2.427	-2.647	-2.357
255.0	-157.7	-149.3	-81.67	5.898	88.42	358.4	 1351	 5276	 4136	270.4	-21.79	-28.01	-23.17	-16.77	-17.63	-15.66	-12.25	-8.936	-8.148	-8.442	-7.143	-6.788	-6.787	-5.538	-6.096	-6.609	-5.991	-5.296	-5.299	-4.847	-4.794	-4.998	-4.471	-3.587	-4.001	-4.116	-3.351	-3.615	-3.183	-2.922	-2.810	-2.917	-2.877	-2.689	-2.386	-2.723	-2.208	-2.437	-2.110	-1.804	-1.278	-1.825	-1.672	-1.854	-1.224	-0.552	0.076	2.981	6.809	3.415	0.186	-2.407	-2.575	-2.377	-2.462	-2.209	-2.240	-2.488	-2.504	-2.605	-2.335	-2.471	-1.883	-2.498	-2.808	-2.687	-2.506
260.0	-153.8	-131.4	-102.7	-47.06	69.42	87.69	288.8	 2374	 6686	 1559	76.12	-23.55	-20.94	-15.26	-16.96	-13.75	-10.91	-9.299	-9.220	-8.341	-7.928	-7.174	-6.491	-6.296	-5.909	-5.363	-4.980	-5.018	-5.008	-4.207	-4.633	-4.196	-4.360	-3.220	-4.154	-3.987	-3.522	-3.635	-2.864	-3.461	-3.171	-2.947	-2.757	-2.701	-2.636	-2.779	-2.126	-2.471	-2.216	-1.780	-1.422	-1.884	-1.959	-1.833	-1.634	-1.870	-2.034	-0.550	2.095	5.301	7.671	3.451	-1.652	-2.299	-2.617	-2.241	-2.377	-2.246	-2.362	-2.482	-2.086	-2.171	-2.495	-2.276	-2.712	-2.915	-2.506
265.0	-148.2	-123.3	-96.99	-91.95	26.70	113.6	57.81	539.3	 3489	 5760	 1162	2.575	-23.12	-17.14	-16.28	-12.38	-12.32	-8.318	-8.566	-7.322	-8.005	-6.430	-6.037	-5.930	-6.300	-5.106	-5.316	-5.737	-5.051	-4.832	-4.678	-3.625	-3.693	-3.495	-4.263	-3.397	-3.454	-3.262	-3.308	-3.171	-2.656	-3.117	-2.491	-2.521	-2.737	-2.550	-2.057	-2.271	-1.903	-1.725	-1.957	-2.051	-1.639	-1.917	-1.576	-2.020	-2.088	-1.539	-1.315	0.365	3.209	7.820	5.618	1.349	-1.858	-2.222	-2.351	-2.193	-2.122	-2.664	-1.803	-1.934	-2.757	-1.984	-2.773	-2.541	-2.797
270.0	-136.6	-126.9	-112.1	-102.6	-48.72	59.25	154.2	144.8	822.1	 2652	 3942	 2135	184.9	-16.27	-15.67	-11.48	-9.610	-9.848	-9.929	-7.572	-7.424	-6.639	-7.389	-6.323	-6.513	-5.399	-5.120	-5.277	-4.064	-4.900	-4.855	-4.113	-4.530	-4.198	-3.978	-3.420	-3.408	-3.370	-3.366	-3.340	-2.755	-2.819	-2.625	-2.695	-2.589	-2.345	-2.152	-2.332	-1.897	-1.711	-1.938	-2.151	-1.903	-1.804	-1.380	-1.300	-1.511	-2.123	-2.027	-1.813	-1.072	0.827	2.560	4.600	6.165	4.347	0.732	-1.797	-2.280	-2.531	-2.488	-2.310	-2.497	-2.187	-2.356	-2.432	-2.439
275.0	-161.2	-132.2	-129.4	-90.42	-71.83	-26.43	121.9	255.6	207.8	590.4	 1311	 3797	 2706	141.9	-13.58	-9.685	-9.985	-8.822	-9.456	-7.830	-8.482	-5.797	-6.594	-5.703	-7.081	-5.869	-5.287	-5.272	-5.614	-4.880	-5.149	-4.894	-4.694	-3.623	-3.525	-3.262	-3.481	-2.554	-2.937	-2.921	-2.662	-2.428	-3.098	-2.986	-2.462	-2.642	-2.256	-2.330	-1.911	-1.761	-1.568	-1.890	-2.158	-1.940	-1.930	-1.631	-1.560	-1.561	-1.330	-2.292	-1.738	-1.837	-0.835	-0.990	0.704	4.978	10.34	6.897	1.884	-1.873	-2.736	-2.360	-2.381	-2.336	-2.793	-2.914	-2.974
280.0	-132.4	-130.1	-114.1	-93.60	-61.35	-46.98	11.52	269.6	240.9	144.3	303.8	 1561	 4169	880.1	44.20	-10.09	-9.476	-7.932	-8.230	-8.532	-8.401	-6.243	-5.959	-6.375	-6.980	-6.066	-5.141	-5.752	-5.054	-3.768	-5.570	-4.612	-4.455	-3.935	-3.801	-3.178	-3.525	-3.189	-2.493	-3.271	-2.704	-2.948	-3.009	-3.109	-2.126	-2.616	-2.026	-1.934	-2.106	-1.979	-1.753	-2.331	-2.569	-1.909	-1.929	-2.218	-2.167	-1.634	-0.201	-1.284	-1.892	-1.906	-2.036	-2.232	-1.702	0.052	3.161	7.922	10.35	5.384	-0.978	-2.565	-2.621	-2.599	-2.897	-2.501	-2.522
285.0	-142.9	-118.0	-111.0	-96.15	-62.63	-52.41	-20.77	110.9	361.3	152.2	87.55	410.3	 2062	 3897	646.2	3.055	-9.117	-9.199	-7.299	-7.412	-6.978	-6.192	-7.376	-6.581	-6.034	-6.694	-5.078	-5.192	-5.327	-4.580	-5.214	-4.425	-4.576	-3.867	-4.052	-3.405	-3.335	-3.516	-2.711	-3.066	-3.003	-2.777	-2.968	-3.328	-2.594	-2.670	-1.932	-2.204	-2.246	-1.853	-2.006	-2.472	-2.462	-2.097	-2.113	-2.636	-2.388	-1.922	-1.440	-0.863	-0.960	-1.273	-1.817	-2.155	-2.155	-1.671	-0.699	0.974	5.662	10.75	8.558	2.343	-1.660	-2.445	-1.790	-2.740	-2.308
290.0	-146.5	-96.15	-77.48	-80.74	-62.81	-46.23	-30.24	15.10	190.7	396.7	241.8	173.2	568.8	 1848	 3043	 1612	127.8	-6.833	-8.003	-5.678	-7.652	-6.675	-6.976	-6.165	-5.333	-6.085	-5.067	-4.962	-4.990	-4.495	-5.007	-4.696	-4.445	-3.890	-3.630	-3.331	-2.889	-2.885	-2.896	-3.087	-3.114	-2.936	-3.172	-2.678	-2.565	-2.439	-1.933	-1.927	-1.906	-1.499	-1.753	-2.355	-2.324	-2.224	-1.995	-2.322	-1.863	-2.163	-1.855	-1.675	-1.557	-0.996	-0.822	-1.797	-1.732	-1.531	-1.868	-1.257	-0.186	1.650	4.452	6.559	7.404	4.652	0.717	-2.014	-2.336
295.0	-125.0	-87.91	-49.64	-63.55	-49.92	-50.97	-29.05	12.81	68.79	241.6	586.4	297.4	242.8	493.3	 1014	 3125	 2179	102.7	-7.490	-7.851	-6.707	-7.447	-6.336	-5.806	-5.305	-6.740	-5.664	-4.563	-5.030	-5.368	-4.817	-4.315	-4.262	-3.978	-3.436	-3.113	-2.881	-3.148	-2.797	-3.152	-2.203	-2.822	-2.820	-3.308	-2.831	-2.857	-1.559	-2.310	-2.147	-1.570	-1.519	-2.423	-2.082	-2.320	-1.695	-2.064	-2.182	-2.476	-1.838	-1.632	-1.535	-1.905	-1.240	-0.052	-0.544	-1.526	-2.136	-1.538	-1.880	-1.201	-0.478	-0.471	0.642	6.097	10.15	6.651	0.062
300.0	-126.6	-47.46	4.770	-44.63	-55.57	-45.47	-18.19	7.889	41.79	137.6	477.3	630.2	252.3	197.0	267.5	 1295	 3562	500.5	37.37	-5.850	-4.646	-6.792	-5.748	-4.723	-5.575	-6.425	-5.758	-5.626	-6.017	-4.527	-4.164	-4.908	-4.076	-3.988	-3.401	-3.300	-3.325	-3.149	-3.045	-3.547	-2.855	-3.611	-2.438	-2.576	-2.596	-2.713	-2.194	-2.070	-1.412	-1.170	-1.606	-2.261	-1.857	-2.014	-2.128	-1.701	-2.427	-2.043	-2.032	-2.021	-1.894	-2.203	-1.843	-1.030	-0.436	-0.398	-1.405	-1.475	-1.609	-1.973	-1.842	-1.936	-1.428	0.149	2.947	8.903	11.24
305.0	-111.4	-55.21	-34.28	-26.62	-46.39	-51.13	-16.85	5.722	45.46	106.2	279.3	717.1	478.0	156.2	99.12	318.2	 1774	 3164	402.9	6.432	-4.808	-6.574	-5.098	-4.552	-5.644	-6.054	-4.955	-5.292	-4.896	-4.970	-2.684	-4.264	-5.041	-3.957	-3.432	-2.754	-3.416	-2.966	-2.958	-2.731	-2.656	-3.201	-2.531	-2.324	-2.673	-2.779	-2.348	-2.231	-1.927	-1.438	-1.687	-2.020	-1.721	-1.456	-2.096	-1.772	-1.939	-1.915	-2.338	-1.930	-1.879	-2.102	-1.437	-1.673	-1.235	-0.437	0.191	-0.677	-1.204	-2.200	-1.993	-2.030	-2.342	-1.918	-1.057	1.283	6.723
310.0	-110.8	-71.97	-14.67	-17.16	-34.89	-26.42	4.505	30.21	59.05	109.4	206.1	398.4	638.5	370.2	81.99	86.84	436.6	 1521	 2447	 1327	94.34	-3.728	-4.875	-5.817	-5.763	-4.552	-5.260	-4.742	-5.105	-5.488	-3.919	-3.984	-4.289	-3.869	-3.637	-3.339	-3.347	-3.301	-2.977	-2.875	-2.401	-2.840	-2.815	-2.810	-2.541	-2.378	-1.945	-2.147	-1.965	-1.677	-1.696	-1.695	-2.024	-1.732	-1.888	-1.923	-2.096	-1.600	-1.750	-2.249	-2.035	-2.191	-1.589	-1.830	-1.425	-1.496	-0.913	-1.048	-0.691	-1.385	-1.596	-2.191	-2.306	-2.208	-2.028	-1.442	-0.250
315.0	-81.98	-52.55	15.75	24.15	24.17	54.52	38.03	76.49	102.8	139.3	199.4	240.5	340.5	570.6	256.8	47.43	112.5	351.2	828.7	 2799	 1787	96.93	-2.922	-5.163	-5.265	-4.005	-5.341	-4.965	-5.689	-4.713	-4.537	-3.802	-4.248	-2.871	-3.617	-3.732	-2.379	-3.280	-3.058	-2.931	-2.880	-2.603	-3.155	-3.217	-2.279	-2.450	-1.760	-1.746	-1.897	-1.294	-1.501	-1.736	-1.979	-1.936	-1.768	-1.926	-1.700	-1.772	-1.883	-2.022	-2.240	-1.615	-1.975	-1.924	-1.831	-1.682	-1.782	-1.805	-1.550	-0.760	-0.576	-1.666	-2.101	-2.103	-2.695	-2.534	-2.015
320.0	-96.65	0.632	64.28	125.9	166.4	226.3	202.8	217.1	213.1	213.7	213.5	196.1	224.4	382.6	495.9	130.5	48.60	94.29	202.9	 1193	 3002	 1182	32.90	-4.336	-5.321	-4.623	-4.890	-4.820	-4.208	-5.117	-3.986	-4.452	-4.121	-3.517	-3.516	-3.414	-2.584	-3.480	-3.504	-3.082	-3.267	-2.933	-2.736	-3.021	-2.459	-2.089	-2.079	-1.698	-1.798	-1.601	-1.624	-1.483	-1.529	-1.371	-0.903	-0.993	-0.998	-1.257	-1.305	-1.645	-1.728	-0.930	-1.480	-1.359	-1.772	-1.746	-2.269	-2.197	-1.857	-1.706	-0.681	-0.544	-1.338	-1.737	-2.361	-2.516	-2.781
325.0	-44.75	98.06	208.3	362.3	435.0	554.5	597.6	527.6	427.7	380.9	297.4	204.5	200.2	226.0	444.6	337.2	71.83	45.79	67.72	301.5	 1559	 2717	294.7	6.846	-4.636	-4.398	-4.838	-5.272	-4.945	-4.746	-4.000	-3.755	-4.256	-3.705	-2.761	-3.449	-2.689	-2.843	-3.171	-3.138	-2.961	-2.489	-2.694	-2.650	-2.614	-2.053	-1.622	-1.544	-1.872	-1.387	-0.804	-0.713	-0.732	-0.309	-0.116	-0.338	-0.368	-0.317	-0.515	-0.767	-1.227	-0.731	-1.061	-1.526	-1.471	-1.739	-2.100	-2.330	-2.244	-1.875	-1.763	-0.806	-1.039	-0.955	-1.310	-2.138	-2.595
330.0	102.5	367.8	633.2	982.5	 1288	 1612	 1648	 1427	 1105	893.8	532.5	277.9	223.9	198.6	246.2	382.4	298.4	105.9	63.90	103.8	394.9	 1300	 1979	983.5	72.50	-3.550	-3.655	-5.337	-4.300	-4.789	-4.021	-4.561	-4.295	-4.178	-3.268	-3.519	-3.074	-2.970	-3.169	-3.130	-2.479	-2.790	-2.682	-2.283	-1.901	-2.065	-1.141	-1.166	-0.685	-0.101	0.639	1.191	1.329	2.173	2.825	2.121	2.748	2.332	2.217	1.233	1.161	0.761	-0.046	-0.678	-1.351	-1.114	-1.644	-1.414	-1.685	-1.709	-1.820	-1.628	-1.365	-1.038	-0.992	-1.317	-2.093
335.0	302.7	779.2	 1323	 1987	 2557	 3044	 3276	 2742	 1978	 1627	931.1	411.8	280.3	250.6	224.7	251.8	418.2	335.9	115.7	80.44	123.1	307.2	695.6	 2163	 1395	90.30	-2.994	-4.004	-4.266	-4.542	-4.625	-3.786	-4.142	-3.584	-3.556	-2.607	-3.099	-2.633	-2.880	-2.690	-2.337	-2.409	-2.018	-1.945	-1.044	-0.991	-0.538	0.363	1.019	1.323	2.589	4.366	5.394	7.267	7.279	7.581	6.842	7.527	5.575	4.429	4.188	3.508	2.020	0.795	-0.610	-0.808	-1.153	-1.797	-1.653	-1.753	-1.773	-1.865	-2.114	-1.538	-1.357	-1.718	-1.040
340.0	493.7	 1146	 1986	 2886	 3686	 4482	 4613	 3965	 3027	 2256	 1300	526.1	305.1	278.3	249.5	230.8	318.7	483.8	253.8	97.30	74.41	92.52	168.6	958.4	 2435	 1119	32.68	-3.176	-3.086	-4.181	-4.282	-3.829	-3.680	-2.987	-3.167	-3.000	-3.409	-2.715	-2.794	-2.421	-2.457	-2.123	-1.821	-1.436	-1.134	-0.004	0.815	0.894	2.352	3.315	5.106	7.741	8.963	10.58	11.32	11.36	12.93	10.54	8.679	7.321	5.890	5.063	3.517	1.027	0.019	-0.795	-1.246	-1.345	-1.304	-1.723	-1.581	-1.714	-1.845	-1.673	-1.533	-1.996	-1.602
345.0	676.5	 1401	 2385	 3676	 4848	 5809	 5968	 5188	 3912	 2856	 1621	612.4	357.6	319.1	293.7	267.3	279.5	416.8	438.9	157.3	73.65	49.06	48.28	237.6	 1302	 2636	238.0	7.324	-3.336	-3.725	-3.820	-3.210	-3.561	-3.671	-3.000	-2.695	-2.995	-2.738	-2.908	-2.294	-2.009	-1.900	-1.944	-0.874	-0.189	0.433	2.064	2.418	3.989	5.174	7.379	10.25	11.91	14.64	14.29	15.78	15.98	14.83	11.42	9.703	8.338	6.290	4.556	2.274	1.133	-0.381	-1.096	-1.108	-1.235	-1.563	-1.331	-1.214	-1.867	-1.698	-1.408	-1.708	-1.664
350.0	876.6	 1791	 2956	 4530	 5987	 7191	 7392	 6415	 4832	 3570	 1890	716.1	403.4	372.6	347.9	314.0	306.1	331.6	404.2	336.0	129.4	44.72	25.73	61.15	321.5	 1272	 1675	881.7	72.06	-3.313	-3.468	-3.161	-3.808	-3.178	-3.496	-3.167	-2.554	-2.814	-2.492	-2.135	-2.106	-1.821	-1.681	-0.695	0.413	1.244	2.795	3.725	5.550	6.343	9.389	12.87	14.64	18.39	18.40	19.79	20.77	18.84	15.21	12.53	10.80	9.000	7.014	3.703	1.323	-0.135	-0.964	-0.686	-1.320	-1.132	-1.332	-1.069	-1.671	-1.601	-1.541	-1.390	-1.392
355.0	 1100	 2093	 3481	 5174	 6875	 8309	 8366	 7226	 5522	 4010	 2119	801.8	450.0	395.1	372.0	356.8	339.2	322.6	312.9	341.8	281.1	73.90	23.85	22.37	78.36	291.1	610.9	 2008	 1371	86.82	-2.593	-2.737	-3.575	-3.485	-2.935	-2.732	-2.442	-3.017	-2.181	-2.148	-2.533	-1.990	-1.495	-0.614	0.723	1.870	3.429	4.481	5.756	8.352	11.02	15.36	17.59	20.11	20.89	23.18	23.40	21.07	17.56	15.28	12.59	9.812	8.849	4.407	2.046	0.541	-0.537	-1.131	-1.299	-1.716	-1.247	-1.489	-1.221	-1.054	-1.765	-1.392	-1.717
360.0	 1163	 2255	 3811	 5382	 7167	 8772	 8952	 7542	 5685	 4217	 2172	792.4	483.2	410.8	377.9	360.4	343.0	329.1	286.0	259.0	322.1	163.0	34.68	15.30	26.67	72.36	146.5	900.4	 2407	 1012	35.57	-2.918	-3.618	-3.571	-3.214	-3.057	-2.778	-2.880	-2.536	-2.166	-1.710	-1.806	-1.827	-0.562	1.104	1.566	3.616	4.668	5.888	8.360	11.28	16.68	18.33	22.41	22.81	23.66	24.22	21.67	17.93	15.12	12.82	10.13	8.414	4.889	1.770	0.300	-0.433	-1.164	-1.025	-1.564	-1.447	-1.509	-0.466	-1.066	-1.671	-0.825	-1.199
365.0	 1271	 2253	 3793	 5470	 7312	 8790	 9145	 7611	 5673	 4289	 2219	815.6	453.1	407.7	389.2	370.8	364.3	321.6	284.3	211.6	229.5	247.7	81.08	17.56	14.80	24.48	37.40	221.4	 1271	 2306	216.1	7.510	-2.992	-2.932	-2.830	-3.229	-2.768	-2.993	-2.221	-2.114	-1.430	-1.320	-1.138	-0.795	0.827	1.972	3.869	4.588	6.139	8.073	11.05	16.22	19.22	22.77	23.37	23.92	23.22	21.78	18.47	15.02	12.88	11.23	8.369	4.883	1.832	0.321	0.082	-1.388	-1.203	-0.991	-1.195	-0.962	-0.838	-1.187	-1.830	-1.054	-1.497
370.0	 1087	 2165	 3727	 5343	 6999	 8518	 8771	 7473	 5534	 4155	 2114	781.8	425.3	386.0	375.7	357.6	349.3	323.1	269.7	189.8	141.6	172.4	177.9	68.58	17.69	13.51	15.89	55.39	310.7	 1105	 1578	794.7	61.69	-2.183	-2.826	-2.676	-2.174	-2.535	-2.239	-2.075	-1.971	-1.521	-1.213	-0.319	0.449	2.598	2.941	4.510	5.974	8.645	10.76	15.63	17.81	21.63	22.05	23.57	24.15	20.91	18.43	14.99	12.07	11.02	7.937	4.755	1.877	0.136	-0.535	-1.360	-1.158	-1.052	-1.325	-1.062	-1.203	-1.102	-1.289	-0.955	-1.377
375.0	 1058	 2005	 3527	 5048	 6402	 7785	 7937	 6808	 5176	 3829	 1919	742.8	402.9	348.4	349.9	338.6	320.2	308.5	251.9	175.6	118.4	87.76	140.3	174.6	55.75	15.59	12.73	19.42	73.21	251.2	588.7	 1879	 1141	67.57	-1.980	-2.198	-1.861	-2.477	-2.349	-1.959	-2.233	-1.554	-1.434	-0.691	0.618	2.333	2.415	4.056	6.353	7.923	9.921	14.22	17.01	19.29	20.16	21.20	21.92	18.28	16.30	12.99	10.33	9.916	7.002	4.142	1.238	-0.030	-1.012	-1.284	-1.401	-1.513	-1.264	-1.283	-1.195	-1.675	-1.703	-1.819	-1.518
380.0	964.5	 1966	 3161	 4515	 6031	 7179	 7365	 6270	 4665	 3533	 1779	663.4	376.0	323.6	326.8	304.8	292.9	291.9	229.6	164.6	102.1	66.34	76.35	166.5	126.2	29.27	11.82	9.765	22.16	61.17	137.8	843.8	 2036	829.3	22.39	-2.483	-2.374	-2.240	-2.373	-1.728	-1.955	-1.805	-1.871	-0.942	-0.317	1.325	2.843	3.390	5.306	6.861	9.552	13.03	15.33	18.29	18.20	18.83	18.81	17.69	14.88	11.89	10.23	8.592	6.676	3.776	0.785	-0.575	-1.040	-1.481	-1.497	-1.206	-1.662	-1.270	-1.487	-1.332	-1.404	-1.606	-1.356
385.0	903.5	 1722	 2862	 4051	 5448	 6517	 6682	 5673	 4300	 3149	 1653	593.3	343.8	293.4	301.0	279.9	278.3	268.0	220.6	153.7	92.80	57.20	48.00	99.27	173.9	75.62	15.88	10.63	11.16	17.28	34.62	205.2	 1102	 1919	165.8	3.592	-1.741	-2.224	-2.412	-2.656	-1.842	-1.799	-1.354	-1.097	-0.094	1.465	2.351	3.365	4.315	5.542	8.254	12.26	12.88	16.43	15.35	17.96	16.12	14.56	12.70	10.35	9.544	6.384	5.212	2.556	0.597	-0.486	-1.244	-1.334	-1.062	-1.394	-1.354	-1.376	-1.635	-0.821	-1.035	-1.823	-1.449
390.0	713.6	 1442	 2398	 3448	 4584	 5474	 5672	 4807	 3594	 2642	 1415	514.4	296.9	263.6	251.7	251.7	242.8	229.1	194.0	138.9	89.01	57.43	40.07	51.09	104.0	139.0	63.85	18.07	9.504	9.394	12.63	48.14	268.6	936.0	 1223	585.6	42.67	-2.253	-2.305	-2.158	-2.038	-1.653	-1.226	-1.228	-0.348	0.355	1.726	2.391	3.615	4.870	6.277	10.32	10.54	13.53	13.74	15.10	13.57	12.33	11.13	7.992	7.760	4.825	4.208	2.487	0.303	-0.826	-1.200	-1.174	-1.676	-1.683	-1.529	-1.426	-1.824	-1.357	-1.729	-1.579	-1.573
395.0	591.3	 1170	 1924	 2929	 3857	 4593	 4690	 3920	 2953	 2148	 1169	434.6	253.2	219.3	207.5	221.2	201.1	199.8	163.3	121.6	82.42	50.70	37.31	36.20	47.94	94.60	134.9	55.46	13.22	7.730	7.909	14.74	62.91	212.0	460.3	 1432	810.4	46.90	-1.219	-2.474	-2.116	-0.879	-1.042	-1.064	-0.746	0.110	1.175	1.489	2.385	3.416	5.424	7.292	8.282	10.22	11.25	12.13	10.80	9.776	8.970	6.454	5.825	3.795	3.060	1.400	-0.128	-0.962	-1.158	-1.228	-1.830	-1.726	-1.829	-1.461	-1.579	-1.654	-1.506	-1.870	-1.944
400.0	454.8	929.5	 1555	 2514	 3460	 3878	 3945	 3328	 2491	 1842	 1009	355.2	218.9	187.8	182.0	186.7	179.6	171.4	146.1	105.7	74.05	50.10	36.87	35.83	33.62	49.85	118.1	111.9	30.11	10.45	7.022	7.963	16.88	48.92	107.9	660.9	 1439	561.9	13.63	-2.123	-2.325	-1.643	-1.632	-1.856	-0.694	-0.268	0.190	0.909	2.221	2.426	4.537	5.909	6.753	8.256	8.752	10.30	9.633	7.671	7.123	5.266	5.165	2.740	1.839	0.569	-0.201	-1.012	-1.176	-1.293	-2.001	-2.032	-2.009	-1.457	-1.721	-1.418	-2.280	-1.993	-1.928
405.0	338.6	769.4	 1368	 2160	 2923	 3268	 3305	 2828	 2128	 1569	849.9	301.3	180.7	160.9	157.3	162.5	152.9	143.2	130.2	97.68	69.47	45.81	35.73	31.80	32.13	31.17	65.78	126.6	71.18	18.12	7.660	6.175	7.959	12.68	25.32	160.7	775.0	 1397	137.6	2.099	-1.744	-1.997	-1.983	-2.137	-0.909	-0.853	-0.330	0.181	1.193	1.591	3.094	4.989	5.779	7.609	6.548	7.395	7.926	6.096	5.161	4.429	3.688	1.990	1.171	0.422	-0.676	-1.180	-1.588	-1.550	-1.748	-2.152	-2.274	-1.663	-1.585	-1.728	-1.912	-2.177	-1.955
410.0	237.0	595.0	 1056	 1678	 2210	 2674	 2606	 2285	 1723	 1282	673.9	245.7	147.6	134.4	135.9	132.0	125.9	123.8	109.8	83.31	62.96	44.87	35.49	33.04	30.13	26.77	34.43	71.80	106.2	60.92	15.23	7.539	6.175	6.269	7.039	37.31	188.4	686.3	974.3	475.9	33.13	-1.542	-2.187	-1.823	-1.443	-1.053	-0.378	-0.176	0.619	0.995	2.239	4.007	4.214	5.261	5.342	5.259	5.869	5.157	4.055	2.984	1.714	1.189	0.865	0.087	-0.922	-1.592	-2.025	-2.190	-2.012	-1.839	-1.977	-1.880	-1.827	-1.794	-1.662	-1.753	-1.939
415.0	163.0	454.7	817.4	 1311	 1735	 2081	 2044	 1773	 1345	998.1	529.3	192.9	109.1	112.1	109.5	104.1	97.94	98.98	90.79	71.69	54.21	39.33	33.37	31.26	28.34	26.50	25.94	34.36	62.16	103.3	51.27	12.37	5.462	6.193	2.758	9.349	43.35	154.0	358.3	 1041	609.2	32.24	-2.215	-1.655	-1.408	-0.991	-0.867	-0.329	0.181	0.566	1.325	2.463	2.648	3.121	3.056	3.133	3.742	3.346	1.905	1.472	1.342	0.581	-0.063	-0.675	-1.068	-1.860	-1.990	-2.395	-2.200	-2.184	-2.045	-1.925	-2.096	-2.170	-2.318	-2.120	-2.286
420.0	121.3	333.8	603.4	 1067	 1331	 1675	 1621	 1413	 1070	805.2	412.1	153.2	98.21	93.49	91.72	85.69	89.75	85.74	77.86	65.16	48.23	37.19	31.40	28.70	28.44	25.46	22.66	23.89	30.84	79.98	87.00	28.16	7.816	5.067	3.701	3.421	10.60	34.91	83.31	465.6	 1080	390.8	7.978	-2.019	-1.689	-1.617	-1.249	-0.812	-0.153	0.349	0.814	1.507	1.628	2.343	2.285	2.748	2.972	2.490	1.216	0.944	0.627	0.285	-0.579	-0.994	-1.118	-1.709	-2.062	-2.261	-1.976	-2.121	-1.917	-1.959	-1.522	-2.032	-2.355	-2.313	-1.848
425.0	44.22	248.6	520.9	839.4	 1122	 1354	 1342	 1167	882.4	655.7	352.0	130.7	82.29	76.40	73.57	76.29	74.58	71.82	67.15	56.22	42.76	34.89	30.86	28.69	27.58	22.40	22.26	22.45	22.39	40.50	90.09	57.31	14.68	4.465	3.547	2.493	3.172	8.906	19.29	112.1	588.1	990.7	116.3	0.477	-1.321	-1.437	-1.119	-1.455	-0.829	-0.130	0.162	0.623	1.137	2.248	1.986	1.438	1.415	1.460	0.155	0.811	0.033	-0.483	-0.745	-0.767	-1.374	-1.798	-2.194	-1.808	-1.902	-1.936	-2.058	-1.698	-1.935	-2.045	-1.925	-1.924	-2.379
430.0	56.46	174.1	369.8	633.1	881.2	 1066	 1036	898.6	693.6	500.0	276.2	108.0	76.57	57.37	66.45	63.86	64.80	59.08	58.39	47.25	37.54	31.78	29.89	28.70	24.87	23.81	21.36	19.69	20.18	24.20	46.86	73.54	47.54	11.17	3.458	2.116	2.246	2.547	4.817	24.90	141.9	496.7	725.9	350.1	27.16	-1.570	-1.384	-1.542	-1.108	-0.696	-0.145	-0.021	0.486	1.042	0.555	0.824	0.930	0.508	0.116	-0.271	-0.491	-0.624	-0.786	-0.921	-1.794	-1.702	-2.046	-2.054	-1.899	-2.214	-2.498	-1.776	-2.443	-1.927	-2.186	-1.849	-2.367
435.0	168.8	136.7	257.9	470.2	640.3	767.3	810.9	669.4	536.3	384.2	208.7	89.91	56.04	58.98	52.97	51.73	51.46	51.43	47.30	40.28	31.88	27.61	25.52	25.60	25.39	22.17	20.31	20.02	19.26	17.07	22.02	41.22	72.31	38.01	7.467	3.146	2.079	2.165	2.423	5.595	31.16	110.9	282.3	818.0	488.7	24.49	-1.529	-0.907	-1.207	-0.616	-0.184	-0.850	0.339	-0.093	0.190	0.056	0.103	-0.290	-0.413	-1.019	-0.867	-0.617	-0.924	-1.623	-1.990	-1.937	-2.041	-2.110	-1.959	-2.084	-2.564	-1.101	-2.196	-1.989	-2.260	-2.174	-2.262
440.0	203.8	181.5	208.8	321.3	518.2	601.0	641.2	536.5	409.0	331.0	161.2	72.94	50.24	48.84	49.91	46.24	46.14	42.23	39.39	34.25	29.64	25.13	25.87	24.64	24.95	23.67	20.99	19.85	17.93	17.17	15.31	21.69	50.39	59.88	18.02	3.648	3.066	1.635	1.016	0.929	6.638	24.84	65.48	401.3	920.8	122.1	5.283	-1.323	-1.577	-0.936	-0.100	-0.761	-0.237	0.160	0.150	-0.914	-0.900	-0.308	-0.046	-0.903	-1.335	-1.317	-1.109	-1.865	-1.970	-1.910	-1.863	-2.065	-2.326	-2.273	-2.121	-2.250	-2.527	-2.562	-2.588	-2.415	-2.275
445.0	117.2	392.6	135.0	275.7	398.0	539.1	511.8	452.0	339.5	257.4	137.7	57.20	43.34	45.45	44.16	46.02	39.72	40.43	40.18	34.48	26.21	23.17	24.97	21.86	22.26	21.84	22.16	18.00	17.41	15.18	12.77	13.46	26.63	59.36	39.65	8.904	3.201	1.581	0.958	0.548	1.491	4.695	14.79	99.57	539.5	823.8	91.37	0.736	-0.891	-1.031	-0.769	-1.124	-0.841	-0.483	-0.637	-0.350	-0.793	-0.311	-0.799	-1.063	-1.269	-1.762	-1.619	-2.221	-2.083	-1.806	-2.227	-2.080	-1.767	-2.127	-2.461	-2.481	-2.547	-2.444	-2.081	-1.809	-2.560
450.0	-29.22	524.3	351.2	186.8	285.2	374.2	406.2	355.5	263.8	196.7	107.5	50.23	32.53	33.36	34.94	34.74	33.70	34.21	29.50	29.65	24.68	22.37	20.78	20.70	20.48	19.58	19.98	17.50	17.08	14.85	13.02	11.65	13.27	29.02	48.31	28.99	6.943	1.462	0.820	0.360	0.692	0.621	2.647	21.92	133.5	469.0	681.5	303.7	18.72	-1.007	-1.005	-1.600	-1.118	-0.903	-0.966	-0.839	-0.850	-1.135	-1.454	-1.389	-1.576	-1.771	-2.021	-2.250	-2.193	-2.035	-2.242	-1.842	-2.055	-1.992	-2.418	-2.313	-2.345	-2.501	-2.162	-2.137	-2.362
455.0	-93.95	273.8	912.3	218.0	207.9	274.2	282.0	257.9	184.8	150.4	71.93	34.89	24.98	33.42	28.22	26.00	28.47	29.74	22.48	21.50	18.17	20.41	19.10	19.31	18.94	18.93	17.97	17.24	15.53	14.25	10.94	10.36	9.704	12.57	25.62	44.57	24.70	4.567	1.415	0.240	0.911	0.095	0.147	4.457	29.32	105.3	278.1	781.9	374.2	11.35	-1.083	-1.465	-1.004	-1.110	-0.923	-0.809	-1.043	-1.547	-1.207	-1.171	-2.119	-1.655	-2.087	-2.026	-2.477	-2.203	-2.082	-1.857	-2.218	-2.380	-2.161	-2.260	-2.022	-2.391	-2.178	-2.289	-2.207
460.0	-103.2	23.03	952.0	502.0	124.9	212.3	218.1	190.9	149.8	121.7	62.34	34.76	27.16	23.62	26.67	24.95	24.22	23.41	20.86	18.13	18.44	16.63	16.78	17.17	15.38	16.84	19.24	14.93	14.88	12.63	10.26	9.359	7.593	8.249	11.88	36.03	38.63	11.43	1.324	-0.026	0.438	-0.799	-0.864	0.453	6.139	22.75	64.32	408.5	803.9	82.55	3.785	-0.936	-1.465	-1.418	-1.843	-1.335	-1.256	-1.397	-1.467	-1.823	-1.574	-1.344	-1.868	-1.676	-2.314	-2.308	-2.589	-1.902	-2.453	-2.217	-1.943	-2.265	-2.384	-2.705	-2.048	-2.222	-2.223
465.0	-103.9	-51.17	654.7	 1123	142.0	163.0	155.1	140.9	113.8	91.69	44.28	22.85	19.35	16.92	21.21	23.12	24.20	20.31	21.61	18.14	17.76	15.67	14.39	15.87	14.01	13.81	15.90	12.71	14.63	11.77	11.05	9.612	6.908	6.963	6.079	16.88	38.57	25.87	4.387	0.412	0.543	-0.196	-0.639	-0.603	1.179	4.027	14.41	103.2	530.1	628.8	72.82	-0.676	-1.119	-1.495	-1.516	-1.160	-1.417	-1.667	-1.682	-1.529	-1.568	-1.652	-2.083	-1.995	-2.078	-2.577	-2.629	-2.256	-2.087	-2.392	-2.074	-2.084	-2.420	-2.632	-2.612	-2.047	-2.129
470.0	-143.4	-78.58	149.8	 1280	650.1	110.9	115.8	87.80	80.50	66.58	32.08	20.94	15.09	16.46	16.08	16.04	17.96	19.18	17.21	14.55	14.64	12.11	13.22	13.68	11.87	12.70	12.08	10.19	11.09	11.13	9.629	9.080	6.386	5.505	4.670	6.961	17.97	30.67	16.66	2.788	0.430	-0.610	-0.424	-0.417	-0.352	0.332	2.559	22.86	133.5	404.2	554.2	213.5	8.222	-1.532	-1.345	-1.456	-1.641	-2.072	-1.544	-1.971	-2.319	-1.916	-2.193	-2.169	-2.121	-2.450	-2.168	-2.094	-2.276	-2.622	-2.233	-2.477	-2.271	-2.675	-2.203	-2.520	-2.465
475.0	-136.9	-87.24	-15.10	594.0	 1522	196.2	65.13	68.05	55.16	43.13	21.26	9.704	9.429	8.063	10.52	14.68	10.26	15.59	14.25	13.08	11.49	11.45	12.12	11.48	10.89	9.645	8.431	8.848	10.56	8.025	7.829	7.010	4.971	4.798	3.947	3.568	6.178	15.35	24.53	13.51	0.574	-0.814	-0.229	-0.371	-1.031	-0.852	0.539	4.580	29.60	91.00	248.9	582.1	94.59	5.950	-1.423	-1.699	-2.044	-2.242	-1.690	-2.131	-2.156	-2.029	-2.574	-2.084	-2.387	-1.929	-2.261	-1.917	-2.272	-2.508	-2.501	-2.535	-2.160	-2.531	-2.243	-2.736	-2.530
480.0	-132.0	-114.2	-39.11	154.6	 1527	637.4	44.43	50.94	41.92	27.94	12.09	5.055	5.569	9.423	6.324	9.322	8.899	11.86	11.16	11.01	9.948	8.740	8.422	9.505	9.299	10.17	8.347	7.826	9.592	8.574	6.944	5.252	5.196	4.703	4.219	3.302	3.945	5.482	19.44	22.11	5.730	0.725	-0.891	-0.815	-0.463	-1.099	-0.775	0.118	5.825	20.24	59.57	333.5	529.7	86.37	-0.171	-2.121	-1.659	-2.305	-1.962	-1.990	-1.946	-2.375	-2.028	-2.605	-2.164	-2.119	-2.187	-2.365	-2.490	-2.462	-2.440	-2.683	-2.369	-2.391	-2.029	-2.346	-2.356
485.0	-135.6	-143.5	-50.31	30.43	976.2	 1376	65.99	32.34	31.14	17.95	11.97	3.527	-0.871	4.687	7.222	4.700	6.956	11.64	9.010	7.439	8.071	8.440	8.146	8.373	8.561	8.029	7.710	7.048	7.111	7.722	5.911	5.507	5.468	4.140	3.188	3.264	2.820	2.229	9.966	21.87	13.68	2.032	-0.608	-0.647	-0.160	-1.064	-1.133	-0.742	0.074	4.142	12.92	87.74	395.8	488.3	59.01	-1.411	-1.044	-2.025	-2.252	-2.178	-2.203	-2.011	-1.817	-2.164	-2.344	-2.296	-1.994	-2.123	-2.841	-2.378	-2.449	-2.221	-2.014	-2.436	-2.573	-2.207	-2.630
490.0	-153.4	-116.9	-58.10	-23.45	274.2	 1557	661.1	14.83	18.44	14.51	3.517	0.383	3.138	7.754	5.534	4.268	4.004	5.292	7.590	5.841	6.927	6.192	7.368	5.593	8.068	6.343	7.108	6.240	6.063	6.131	6.554	4.417	4.545	3.847	2.511	3.087	2.420	1.138	3.328	11.59	18.72	9.316	1.143	-0.958	-0.169	-0.678	-0.987	-1.152	-0.764	0.002	2.481	18.79	101.9	323.1	469.1	178.2	6.629	-2.028	-2.257	-2.151	-2.282	-2.110	-2.004	-2.441	-2.184	-2.052	-2.225	-2.267	-2.468	-2.067	-2.156	-2.104	-2.105	-2.329	-2.521	-2.406	-2.748
495.0	-152.9	-126.8	-66.92	-45.54	36.79	702.5	 1746	130.6	11.65	9.980	2.015	-1.257	2.531	2.968	0.266	2.929	3.344	1.876	4.564	3.609	4.039	5.092	6.624	4.898	6.279	5.278	5.813	3.442	5.551	3.935	3.087	2.500	3.423	2.457	2.139	3.071	1.213	0.829	0.485	3.349	10.93	15.99	6.764	-0.050	-1.067	-0.992	-1.306	-0.751	-0.733	-0.631	-0.102	3.062	22.04	72.52	244.6	559.0	100.4	3.064	-2.146	-1.988	-2.275	-1.815	-2.382	-2.008	-2.276	-2.028	-2.141	-2.398	-2.097	-2.108	-2.368	-1.936	-2.290	-2.189	-2.300	-2.394	-2.214
500.0	-158.4	-133.7	-57.80	-41.07	-20.06	183.2	 1783	650.1	0.769	4.090	-7.522	-8.812	-0.782	-2.063	2.391	3.456	2.610	1.033	2.004	0.848	2.845	4.198	4.456	4.804	3.912	4.857	4.605	3.260	3.879	4.766	4.656	1.804	2.566	2.645	1.595	2.462	0.824	0.318	1.033	0.845	3.893	13.60	12.36	1.903	-0.468	-1.063	-0.916	-0.790	-0.912	-0.466	-0.801	-0.407	4.108	15.00	59.06	340.0	505.6	79.48	-0.725	-2.303	-1.839	-1.730	-2.211	-1.887	-2.245	-1.970	-2.475	-2.560	-2.255	-2.087	-2.079	-2.438	-2.779	-2.447	-2.499	-2.565	-2.239
505.0	-160.0	-130.9	-75.96	-45.29	-44.06	24.23	 1123	 1524	37.87	-0.437	-4.863	-5.895	-8.224	-1.190	1.245	-2.585	-0.942	-0.504	0.890	2.928	2.111	3.231	3.557	1.846	2.612	4.039	3.541	2.081	3.141	3.215	2.713	1.998	1.819	1.488	1.168	1.525	0.333	-0.175	1.010	-0.488	1.067	7.685	13.60	7.434	0.364	-1.695	-0.346	-0.907	-0.853	-0.428	-1.085	-1.171	0.018	2.591	12.05	90.36	401.3	421.6	55.70	-1.398	-1.867	-1.957	-2.056	-1.847	-2.398	-2.276	-2.048	-2.436	-2.250	-2.068	-2.216	-2.580	-2.257	-2.363	-2.679	-2.296	-2.202
510.0	-152.8	-125.1	-80.28	-49.43	-41.69	-23.16	312.4	 1791	714.1	-6.209	-8.818	-14.10	-3.555	-3.275	-2.389	-4.564	-1.766	0.591	0.196	1.565	1.913	2.128	2.222	1.708	1.678	3.433	2.444	3.177	2.310	1.978	2.489	2.021	2.183	1.343	0.926	0.799	0.480	-0.103	0.402	-0.290	-0.481	1.763	8.049	10.76	4.849	0.162	-0.893	-1.276	-1.032	-1.027	-0.942	-1.332	-0.917	-0.944	1.540	19.26	106.1	289.9	353.2	62.76	4.295	-1.952	-2.073	-2.209	-2.391	-2.071	-2.057	-2.452	-2.153	-2.383	-2.560	-2.484	-2.076	-2.047	-2.699	-2.440	-2.263
515.0	-157.0	-106.5	-102.5	-56.52	-22.52	-35.71	45.51	825.7	 1811	123.0	-6.969	-16.23	-9.819	-2.987	-2.752	-3.485	-3.658	-4.038	-2.619	-0.214	0.560	0.321	1.181	-0.449	1.806	2.272	2.521	1.311	1.663	2.266	0.925	0.844	0.347	0.448	0.757	0.207	0.581	-0.363	-0.536	-0.412	-1.176	-0.159	1.141	7.469	9.867	3.494	-0.772	-1.555	-1.064	-0.894	-1.170	-1.207	-1.111	-1.582	-0.768	2.757	22.53	64.91	175.5	390.8	91.75	1.479	-2.260	-2.188	-2.565	-2.149	-2.193	-2.286	-2.294	-2.543	-2.514	-2.680	-2.305	-2.341	-2.093	-2.345	-2.584
520.0	-166.1	-124.7	-100.8	-70.83	-25.31	-36.00	-7.331	223.4	 1753	589.4	-14.06	-13.38	-12.71	-5.568	-1.725	-2.896	-3.153	-4.583	-1.356	-0.591	-0.793	0.418	0.785	-0.488	1.228	1.324	1.876	1.306	0.512	0.084	-0.203	0.608	0.209	-0.201	-0.223	-0.789	-0.259	-0.573	-0.644	-0.349	-0.630	-0.690	-0.299	2.756	8.574	6.806	0.486	-1.497	-0.974	-1.114	-1.161	-1.124	-1.428	-1.777	-1.443	-0.824	3.906	13.59	41.61	245.7	367.7	69.85	-1.043	-1.785	-2.437	-2.067	-2.370	-2.245	-2.367	-2.354	-1.784	-2.223	-2.046	-2.615	-2.022	-2.431	-2.370
525.0	-150.1	-151.1	-103.8	-84.90	-27.71	-11.31	-25.47	34.44	 1048	 1283	1.638	-15.91	-11.51	-10.08	-5.752	-3.676	-3.832	-2.111	-2.559	-2.082	-1.495	-1.109	-2.219	-0.791	0.422	-1.386	-0.204	0.164	0.091	0.849	0.164	-0.729	-0.204	0.098	-0.643	-1.241	-0.831	-0.902	-0.701	-0.506	-1.329	-1.269	-0.487	0.543	5.419	8.488	3.968	-0.902	-1.239	-1.212	-0.969	-1.723	-1.487	-1.534	-1.666	-1.378	-0.483	1.828	8.199	64.98	280.9	324.0	42.98	-2.004	-2.307	-2.216	-2.522	-1.912	-2.177	-2.760	-2.391	-2.663	-2.088	-2.768	-2.989	-2.171	-2.400
530.0	-141.4	-137.5	-111.4	-76.20	-44.43	0.046	-27.41	-11.24	294.1	 1328	449.6	-15.24	-10.97	-9.606	-8.797	-7.212	-3.068	-4.069	-2.400	-2.029	-2.497	-2.989	-1.817	-2.117	-1.471	-0.933	-0.261	-0.692	-0.571	-0.777	-0.554	-0.472	-0.274	-0.588	-0.736	-1.244	-1.040	-1.347	-1.578	-1.190	-1.225	-1.372	-1.536	-0.993	0.999	5.114	6.410	2.189	-0.608	-1.063	-1.122	-1.676	-1.852	-1.320	-1.727	-1.946	-1.287	-0.955	0.478	13.31	72.61	218.0	264.8	57.49	1.610	-2.170	-2.197	-1.916	-2.153	-2.450	-2.422	-2.665	-2.293	-2.444	-2.489	-2.461	-2.395
535.0	-140.9	-140.0	-105.4	-74.34	-61.15	-16.40	-14.93	-21.35	43.19	555.7	 1084	45.15	-14.39	-13.17	-7.003	-6.247	-6.519	-6.143	-3.787	-3.392	-4.443	-4.571	-2.710	-2.339	-2.373	-3.396	-0.851	-1.548	-0.955	0.505	-1.708	-0.470	-1.225	-1.061	-2.079	-1.036	-1.228	-0.755	-2.087	-1.913	-1.443	-1.915	-1.646	-1.188	-0.821	0.494	4.904	6.120	1.393	-0.757	-1.180	-1.848	-1.687	-1.780	-1.785	-1.599	-1.908	-1.838	-1.265	1.672	14.78	48.08	133.8	285.3	82.31	0.475	-2.295	-2.407	-2.550	-1.818	-2.450	-2.688	-2.518	-2.351	-2.309	-2.390	-2.475
540.0	-125.4	-143.8	-112.4	-83.24	-57.32	-19.08	-18.98	-20.56	-6.933	143.8	 1069	310.8	-15.07	-16.15	-8.870	-11.31	-7.599	-7.285	-6.538	-2.947	-3.511	-3.912	-1.789	-1.597	-3.567	-2.911	-1.492	-1.838	-2.405	-0.625	-2.219	-1.272	-1.744	-1.766	-1.913	-1.491	-2.173	-1.238	-1.519	-2.247	-1.703	-1.734	-1.642	-1.889	-1.370	-1.071	1.832	5.430	3.314	-0.426	-1.496	-1.291	-1.313	-2.036	-1.871	-1.757	-1.951	-1.983	-1.553	-1.246	1.860	9.310	31.62	173.9	277.4	56.62	-1.325	-2.284	-2.282	-1.859	-2.089	-2.847	-2.262	-2.543	-2.675	-2.282	-2.194
545.0	-158.2	-145.7	-102.8	-88.82	-66.26	-38.52	6.298	-17.72	-21.94	14.74	605.9	700.5	-0.761	-15.20	-10.31	-10.61	-7.934	-7.184	-6.009	-4.921	-3.532	-4.010	-2.635	-1.664	-3.184	-1.365	-2.092	-0.603	-2.258	-2.042	-2.194	-1.436	-1.678	-1.807	-0.762	-1.443	-1.786	-1.456	-1.775	-1.564	-1.649	-2.394	-2.370	-2.046	-1.483	-1.667	-0.498	3.454	4.120	0.685	-1.193	-1.726	-1.473	-1.813	-1.464	-1.562	-1.741	-1.826	-1.770	-2.088	-1.215	0.448	5.723	45.76	212.2	223.8	28.94	-1.722	-2.338	-2.455	-2.034	-2.511	-2.264	-2.691	-2.399	-2.218	-2.710
550.0	-149.4	-131.7	-123.8	-68.47	-67.63	-55.40	-15.07	-0.975	-25.22	-18.50	157.1	760.4	254.1	-11.18	-10.71	-10.34	-8.590	-7.491	-6.475	-5.387	-4.329	-3.851	-2.950	-3.653	-3.609	-2.720	-3.172	-2.104	-1.840	-3.107	-2.585	-2.399	-2.422	-2.284	-1.297	-1.838	-1.872	-2.398	-1.821	-1.928	-2.136	-2.123	-2.133	-1.822	-1.942	-1.916	-1.620	0.194	2.842	2.890	0.520	-1.643	-1.792	-1.788	-1.886	-1.516	-1.768	-2.048	-2.130	-1.755	-1.686	-1.441	-0.179	8.454	54.01	149.8	155.0	51.32	0.288	-2.464	-2.192	-2.499	-2.236	-2.185	-2.380	-2.364	-2.322
555.0	-176.8	-126.1	-127.6	-70.56	-72.91	-47.28	-34.26	15.44	-13.14	-25.30	16.37	308.0	675.2	21.75	-11.29	-11.66	-10.88	-6.757	-7.670	-5.595	-5.889	-4.313	-4.777	-5.200	-4.044	-4.743	-3.493	-3.068	-2.114	-2.753	-3.773	-3.522	-3.156	-2.466	-1.955	-2.074	-1.952	-2.162	-1.835	-2.008	-2.435	-1.712	-2.271	-1.847	-2.273	-2.154	-1.544	-1.232	-0.201	3.078	2.195	-0.236	-1.787	-2.192	-2.016	-1.821	-2.292	-1.912	-2.063	-2.301	-2.213	-1.802	-1.654	0.279	10.81	32.18	84.68	197.8	65.63	-1.122	-2.568	-2.358	-2.049	-2.559	-2.068	-2.643	-2.677
560.0	-111.8	-119.9	-133.6	-89.26	-58.82	-55.02	-37.10	9.183	1.657	-25.78	-15.41	72.34	663.6	194.2	-13.07	-10.85	-10.34	-5.801	-6.765	-5.822	-5.055	-4.964	-4.703	-3.506	-3.896	-4.229	-3.729	-2.970	-3.242	-2.547	-4.126	-2.991	-3.644	-2.297	-2.703	-2.153	-2.583	-2.696	-2.094	-2.103	-2.562	-2.047	-2.402	-2.304	-2.519	-2.376	-1.668	-1.898	-1.277	0.968	2.282	-0.366	-1.429	-2.105	-1.659	-2.237	-1.816	-2.212	-1.941	-1.913	-2.315	-2.089	-2.047	-1.665	0.751	5.470	19.11	114.9	176.2	37.91	-2.138	-2.028	-2.155	-2.763	-2.509	-2.054	-2.886
565.0	-169.9	-130.7	-104.3	-94.42	-56.12	-57.34	-42.41	-16.15	11.30	-25.94	-21.85	4.138	377.3	451.9	-4.488	-12.39	-10.14	-8.090	-7.887	-6.400	-5.578	-5.061	-5.778	-4.672	-5.176	-4.399	-3.678	-3.520	-4.307	-3.632	-4.056	-3.660	-3.454	-2.572	-2.481	-2.397	-2.560	-2.385	-2.455	-2.739	-2.326	-2.010	-2.307	-2.145	-2.363	-2.017	-2.094	-1.785	-1.713	-0.023	2.191	0.974	-0.751	-1.935	-2.206	-2.239	-1.988	-1.909	-2.225	-2.165	-2.569	-1.973	-1.820	-1.717	-1.623	-0.521	2.205	29.22	128.6	111.9	17.58	-2.005	-2.041	-2.247	-2.330	-2.005	-2.923
570.0	-157.7	-126.2	-105.0	-99.77	-61.98	-56.45	-50.85	-35.06	21.33	-7.109	-22.05	-14.24	99.42	517.2	165.1	-11.43	-10.26	-8.100	-8.818	-6.991	-7.005	-6.109	-5.895	-4.926	-5.521	-4.115	-4.256	-5.051	-4.410	-4.003	-4.139	-3.575	-3.408	-3.156	-2.775	-3.027	-2.274	-2.503	-2.761	-2.532	-2.260	-2.328	-2.585	-2.230	-2.358	-2.399	-2.474	-2.035	-1.876	-1.095	-0.550	0.364	-0.127	-1.132	-1.886	-2.087	-1.951	-1.954	-2.204	-1.979	-1.988	-2.297	-2.391	-2.192	-2.098	-2.040	-1.240	4.679	31.86	81.73	103.4	34.54	-0.693	-2.387	-2.431	-2.508	-2.800
575.0	-147.6	-146.6	-90.16	-90.52	-68.10	-50.40	-49.00	-36.35	-2.623	20.65	-16.81	-12.16	15.52	204.0	472.7	15.13	-11.13	-8.628	-10.54	-8.686	-7.577	-5.400	-6.571	-5.003	-5.350	-3.444	-3.849	-4.486	-4.067	-3.706	-4.641	-3.399	-2.913	-3.696	-3.317	-2.749	-2.728	-3.116	-2.937	-2.949	-3.158	-2.654	-2.846	-2.494	-1.964	-2.623	-2.531	-2.146	-2.133	-1.262	-1.159	-0.690	0.022	-0.633	-1.626	-2.175	-2.140	-2.396	-2.018	-2.418	-1.957	-1.972	-2.074	-1.904	-2.364	-1.990	-1.958	-0.572	5.397	16.85	50.25	109.8	40.64	-1.337	-2.243	-2.665	-2.214
580.0	-141.1	-143.4	-102.7	-78.36	-78.68	-53.02	-48.74	-37.02	-18.33	30.37	-8.895	-8.690	-4.548	49.89	504.1	140.0	-9.628	-8.065	-10.95	-6.347	-6.748	-6.090	-5.597	-5.633	-6.141	-4.486	-4.337	-4.202	-3.625	-4.412	-4.755	-3.850	-3.522	-3.346	-2.577	-3.255	-2.781	-2.884	-2.846	-2.989	-2.286	-2.689	-2.828	-2.639	-2.403	-2.511	-2.036	-2.571	-1.782	-1.452	-1.176	-1.624	-0.565	-0.433	-1.522	-1.863	-2.123	-2.207	-1.893	-2.232	-1.982	-2.102	-1.628	-1.905	-2.460	-2.136	-2.400	-2.162	-0.515	2.037	10.46	62.50	107.4	20.76	-1.631	-2.541	-2.117
585.0	-141.2	-126.9	-108.6	-89.15	-82.26	-61.31	-51.33	-40.25	-28.67	12.73	8.531	-6.972	-6.522	5.967	278.3	339.8	-5.759	-10.52	-9.895	-7.181	-6.571	-6.460	-5.099	-6.083	-6.063	-4.525	-4.106	-4.462	-4.488	-4.068	-4.536	-3.862	-4.065	-3.154	-2.769	-3.728	-3.207	-2.893	-3.336	-2.905	-2.873	-2.959	-2.374	-2.428	-2.329	-2.074	-1.917	-2.434	-1.888	-1.527	-1.616	-1.863	-0.829	-0.364	-1.145	-1.864	-1.814	-2.214	-2.052	-2.103	-2.244	-2.376	-1.721	-2.079	-2.075	-1.881	-1.970	-2.518	-2.001	-1.673	0.439	14.37	76.44	80.77	8.645	-2.730	-2.138
590.0	-165.3	-123.8	-120.4	-81.87	-81.44	-65.87	-56.74	-41.10	-26.99	-9.115	33.48	-6.123	-7.627	-6.344	66.91	358.8	122.3	-9.015	-9.125	-6.329	-7.108	-6.983	-5.600	-5.605	-5.631	-4.813	-4.703	-4.630	-5.142	-4.754	-4.925	-3.736	-4.447	-3.654	-3.411	-3.146	-2.719	-2.959	-3.218	-2.579	-2.399	-2.681	-2.871	-2.736	-2.646	-2.204	-2.250	-2.348	-2.141	-1.824	-1.759	-1.803	-1.773	-1.483	-0.831	-1.155	-2.239	-2.338	-2.288	-2.256	-2.199	-2.523	-2.141	-2.350	-2.139	-2.354	-2.179	-2.371	-2.163	-2.317	-1.663	1.172	18.39	51.11	60.71	18.51	-1.585
595.0	-162.6	-159.3	-120.5	-84.06	-73.30	-62.19	-52.77	-44.44	-31.65	-21.49	24.79	20.69	-4.884	-8.271	5.431	137.5	316.7	12.46	-10.57	-6.298	-7.603	-6.975	-5.372	-5.621	-5.314	-4.150	-5.552	-4.221	-5.040	-4.681	-4.398	-5.070	-4.736	-4.001	-3.518	-2.848	-2.647	-2.660	-2.681	-3.243	-2.383	-2.905	-3.476	-2.499	-2.936	-2.275	-2.147	-2.315	-2.230	-1.823	-1.882	-2.199	-2.181	-1.980	-0.953	-1.245	-1.536	-1.695	-2.533	-2.168	-1.917	-2.453	-1.705	-2.071	-2.112	-2.538	-2.101	-2.208	-1.964	-2.680	-2.091	-2.007	1.745	9.705	27.49	62.67	22.05
600.0	-164.8	-148.4	-116.4	-81.04	-70.50	-51.07	-55.76	-42.19	-30.49	-20.84	10.80	33.76	-3.585	-12.78	-12.41	29.78	307.9	104.1	-8.800	-8.992	-7.198	-6.246	-6.125	-6.586	-5.076	-5.079	-5.764	-5.019	-4.840	-4.675	-4.646	-4.437	-4.609	-4.065	-3.532	-2.943	-2.781	-2.984	-3.502	-2.470	-3.096	-2.593	-3.181	-2.679	-2.860	-2.296	-2.256	-2.479	-1.868	-1.869	-2.183	-2.110	-1.917	-1.909	-1.883	-1.120	-1.187	-1.742	-2.622	-2.230	-1.921	-2.187	-1.994	-2.238	-2.313	-2.289	-2.109	-2.687	-2.125	-2.361	-1.579	-2.388	-1.538	0.502	4.999	34.38	59.03
605.0	-149.9	-136.3	-127.7	-79.34	-61.70	-57.12	-44.73	-46.49	-32.19	-26.72	-5.013	31.02	-2.511	-11.73	-12.00	-3.115	159.3	237.3	-4.510	-7.697	-6.966	-6.309	-6.457	-6.753	-6.406	-4.860	-5.065	-4.496	-4.821	-4.470	-4.646	-4.709	-4.008	-3.769	-3.669	-3.199	-3.258	-3.419	-3.521	-2.923	-3.131	-2.794	-2.883	-3.079	-3.008	-2.379	-2.404	-2.570	-1.874	-1.674	-1.985	-2.394	-2.023	-2.385	-2.159	-1.328	-1.095	-1.595	-2.224	-2.277	-2.197	-2.187	-2.416	-2.019	-2.431	-2.335	-2.340	-2.268	-2.374	-2.198	-2.445	-2.278	-2.491	-1.525	-0.552	6.781	40.98
610.0	-156.2	-148.8	-125.9	-91.48	-77.79	-59.27	-50.17	-44.42	-33.88	-32.21	-13.34	21.01	16.37	-10.83	-12.97	-10.34	35.12	243.8	91.38	-7.555	-7.135	-7.266	-5.867	-5.779	-6.403	-5.366	-5.081	-4.717	-5.431	-4.475	-4.979	-4.606	-4.656	-3.877	-3.353	-3.417	-3.337	-3.014	-3.429	-3.400	-2.789	-2.687	-2.875	-2.626	-2.594	-2.596	-2.347	-2.437	-2.303	-1.836	-1.848	-2.430	-2.207	-2.136	-2.275	-1.953	-1.738	-1.415	-1.983	-2.181	-2.268	-2.357	-2.373	-2.222	-2.494	-2.486	-2.298	-2.458	-2.286	-2.208	-2.204	-2.559	-2.377	-2.081	-2.215	-0.380	8.295
615.0	-165.2	-154.5	-112.4	-91.83	-91.98	-63.31	-45.57	-48.10	-39.29	-29.80	-19.28	-1.843	28.09	-1.363	-12.62	-10.51	0.047	85.15	241.5	8.635	-8.217	-6.480	-5.941	-5.315	-5.931	-6.088	-5.485	-3.939	-5.411	-5.566	-4.628	-4.168	-4.069	-3.794	-3.421	-3.638	-3.717	-2.988	-3.681	-3.313	-2.821	-2.983	-3.210	-2.984	-2.646	-2.604	-2.427	-2.689	-2.143	-1.837	-1.884	-2.139	-2.382	-2.471	-2.099	-2.409	-1.911	-1.864	-1.504	-1.672	-2.106	-2.277	-2.484	-2.252	-2.510	-2.753	-2.062	-2.607	-2.572	-2.721	-2.267	-2.654	-2.508	-2.454	-2.661	-2.079	-0.051
620.0	-157.0	-139.2	-117.4	-100.1	-73.49	-71.08	-53.46	-43.11	-38.34	-22.64	-18.52	-5.427	24.86	4.293	-12.76	-12.72	-7.881	14.05	230.3	81.17	-6.115	-7.397	-6.919	-5.527	-5.487	-6.009	-5.886	-4.340	-4.826	-5.834	-4.415	-4.420	-4.002	-4.200	-3.876	-3.412	-3.799	-3.921	-3.387	-3.025	-2.576	-3.423	-3.094	-2.603	-2.413	-1.975	-2.648	-2.670	-2.288	-1.823	-1.920	-2.092	-1.983	-2.435	-2.368	-2.079	-1.726	-2.042	-1.718	-1.709	-2.084	-2.562	-2.455	-2.144	-2.358	-2.407	-2.302	-2.236	-2.169	-2.546	-2.479	-2.889	-2.744	-2.427	-2.540	-2.314	-1.770
625.0	-172.2	-147.6	-130.5	-113.1	-80.38	-59.98	-54.60	-40.91	-35.61	-24.80	-18.38	-12.15	9.880	12.27	-10.79	-12.53	-10.34	-4.814	112.4	185.3	-3.186	-7.360	-6.652	-5.151	-6.210	-5.646	-5.492	-5.075	-4.995	-5.140	-5.080	-4.388	-4.330	-3.436	-3.053	-3.808	-3.020	-3.180	-3.371	-3.052	-3.000	-3.305	-3.217	-2.679	-2.658	-2.073	-2.016	-2.604	-2.077	-1.802	-1.935	-2.251	-2.017	-2.127	-2.279	-2.446	-1.929	-2.152	-1.951	-1.882	-2.203	-2.279	-2.190	-2.279	-2.475	-2.441	-2.197	-2.607	-1.929	-2.086	-2.433	-2.893	-1.927	-2.402	-2.553	-2.516	-2.277
630.0	-152.6	-146.0	-111.3	-96.55	-72.65	-60.29	-49.38	-40.53	-34.92	-26.69	-20.83	-12.79	-7.399	13.02	-3.437	-12.29	-10.80	-8.084	24.45	189.7	69.34	-6.941	-6.441	-6.126	-5.852	-5.440	-5.900	-5.183	-4.829	-5.234	-5.257	-4.734	-4.200	-4.086	-3.509	-3.707	-3.119	-3.225	-3.487	-2.967	-3.005	-3.020	-3.302	-3.158	-2.895	-2.650	-2.186	-2.518	-2.443	-1.796	-1.985	-2.020	-2.186	-2.076	-2.104	-2.350	-2.263	-2.002	-2.065	-2.132	-2.035	-2.011	-2.330	-2.421	-2.497	-2.575	-2.321	-2.353	-1.994	-2.500	-2.201	-2.417	-2.284	-2.485	-2.387	-2.820	-2.381
635.0	-130.0	-136.6	-93.91	-90.46	-83.28	-59.66	-39.16	-36.05	-26.98	-25.56	-16.50	-14.90	-11.15	1.158	5.370	-8.982	-11.46	-9.738	-1.802	67.41	178.5	6.071	-7.031	-6.912	-6.790	-5.373	-5.057	-4.010	-5.087	-4.287	-5.251	-4.529	-4.260	-3.527	-3.712	-3.865	-2.823	-3.808	-3.375	-3.433	-3.036	-2.540	-2.838	-1.958	-2.680	-2.525	-2.516	-2.198	-2.009	-1.754	-2.259	-2.088	-2.138	-2.145	-2.115	-2.516	-2.401	-2.264	-1.843	-2.285	-1.865	-2.270	-2.095	-2.647	-2.220	-2.451	-2.544	-2.208	-2.446	-2.368	-2.594	-2.005	-2.336	-2.353	-2.314	-2.440	-2.716
640.0	-154.6	-136.6	-111.0	-86.24	-72.85	-56.22	-36.97	-37.53	-24.49	-21.43	-12.73	-19.26	-9.143	-7.430	10.80	-6.148	-8.500	-7.421	-5.515	11.93	169.8	64.06	-6.554	-4.920	-6.067	-5.921	-5.909	-4.552	-5.186	-5.280	-4.874	-4.729	-4.813	-4.337	-4.000	-3.729	-3.115	-2.794	-3.022	-3.253	-3.067	-3.055	-3.029	-3.048	-2.454	-2.464	-2.368	-2.078	-2.013	-1.961	-2.235	-2.361	-2.020	-2.456	-2.264	-2.216	-2.663	-2.488	-2.257	-2.287	-2.309	-2.274	-1.944	-2.648	-2.106	-2.268	-2.583	-2.275	-1.990	-2.209	-2.549	-2.178	-1.988	-2.427	-2.238	-2.367	-2.516
645.0	-166.6	-135.4	-104.2	-71.51	-74.90	-45.00	-32.03	-26.49	-26.60	-19.28	-19.90	-21.66	-14.08	-15.14	7.289	2.414	-10.54	-7.645	-5.452	-1.296	90.47	139.2	-3.970	-7.068	-6.567	-4.607	-5.057	-4.057	-5.428	-4.819	-5.276	-4.360	-4.726	-4.334	-3.081	-3.202	-2.961	-3.125	-3.222	-3.485	-2.719	-2.917	-3.222	-2.833	-3.128	-2.083	-2.540	-2.091	-2.134	-1.724	-2.066	-2.080	-2.269	-2.280	-2.146	-2.464	-2.356	-2.577	-2.259	-2.081	-2.416	-1.696	-2.371	-2.430	-1.976	-2.282	-2.645	-2.254	-1.998	-2.683	-2.516	-2.511	-1.990	-2.511	-2.674	-2.667	-2.876
650.0	-156.2	-108.2	-101.5	-84.63	-62.18	-35.20	-35.92	-16.42	-20.15	-16.16	-21.22	-20.62	-13.64	-14.73	0.112	5.297	-9.674	-10.24	-10.56	-4.975	23.23	170.9	20.95	-5.975	-5.949	-3.972	-5.084	-4.592	-4.578	-5.297	-4.911	-4.481	-5.123	-4.245	-3.320	-2.807	-3.303	-3.646	-3.816	-3.333	-3.157	-3.336	-2.852	-2.320	-3.213	-2.455	-2.614	-2.247	-2.125	-1.978	-1.958	-2.306	-2.176	-2.367	-2.266	-2.534	-2.585	-2.268	-2.017	-2.187	-1.883	-2.521	-2.832	-2.249	-2.038	-2.635	-2.475	-2.444	-2.401	-2.530	-2.410	-2.885	-2.310	-2.267	-2.729	-2.623	-2.717
