Sample:	'1
File name:	±ÃÕ¾»Ò°×É«60±¶.FD3
Run date:	'10:51:15, 01/10/2024
Operator:	Administrator
Comment:	'

Instrument
Model:	F-2700 FL Spectrophotometer
Serial number:	23B8-004
ROM Version:	4J14000 07

Instrument parameters
Measurement type:	3-D scan
Data mode:	Fluorescence
EX  Start WL:	220.0 nm
EX  End WL:	600.0 nm
EX Sampling interval:	5.0 nm
EM  Start WL:	230.0 nm
EM  End WL:	650.0 nm
EM Sampling interval:	5.0 nm
Scan speed:	12000 nm/min
EX Slit:	5.0 nm
EM Slit:	5.0 nm
PMT Voltage:	700 V
Response:	Auto 
Corrected spectra:	Off
Contour interval:	50.000

Peak integration
Integration method:	Rectangular
Sensitivity:	1
Threshold:	1.000

Peaks
No.	ApexEX/EM(nm)	Height(Data)
1	230.0/340.0	5885
2	235.0/510.0	164.5
3	240.0/525.0	164.0
4	245.0/535.0	147.1
5	250.0/550.0	136.4
6	255.0/565.0	140.1
7	260.0/575.0	141.6
8	265.0/585.0	151.0
9	270.0/600.0	152.4
10	275.0/310.0	2432
11	275.0/335.0	3332
12	275.0/610.0	151.2
13	280.0/625.0	132.9
14	330.0/375.0	310.7
15	335.0/380.0	315.0
16	340.0/385.0	275.4
17	350.0/400.0	191.1
18	355.0/405.0	166.3
19	360.0/410.0	127.0
20	365.0/420.0	118.4
21	370.0/425.0	107.8
22	375.0/430.0	82.43
23	380.0/440.0	78.39
24	385.0/445.0	70.90
25	390.0/450.0	56.82
26	395.0/460.0	50.95
27	400.0/345.0	25.87
28	400.0/465.0	45.07
29	405.0/470.0	35.28
30	405.0/610.0	3.631
31	410.0/480.0	30.51
32	410.0/620.0	3.928
33	415.0/485.0	27.49
34	415.0/625.0	3.927
35	420.0/490.0	22.10
36	420.0/635.0	3.177
37	425.0/500.0	21.75
38	425.0/645.0	3.511
39	430.0/505.0	19.94
40	440.0/520.0	14.91
41	445.0/525.0	12.86
42	455.0/345.0	23.82
43	455.0/540.0	9.418
44	465.0/555.0	5.878
45	470.0/560.0	4.853
46	475.0/340.0	23.34
47	485.0/580.0	3.070
48	490.0/585.0	2.757
49	535.0/270.0	470.1
50	540.0/335.0	13.52
51	555.0/305.0	10.68

Data points
	220.0	225.0	230.0	235.0	240.0	245.0	250.0	255.0	260.0	265.0	270.0	275.0	280.0	285.0	290.0	295.0	300.0	305.0	310.0	315.0	320.0	325.0	330.0	335.0	340.0	345.0	350.0	355.0	360.0	365.0	370.0	375.0	380.0	385.0	390.0	395.0	400.0	405.0	410.0	415.0	420.0	425.0	430.0	435.0	440.0	445.0	450.0	455.0	460.0	465.0	470.0	475.0	480.0	485.0	490.0	495.0	500.0	505.0	510.0	515.0	520.0	525.0	530.0	535.0	540.0	545.0	550.0	555.0	560.0	565.0	570.0	575.0	580.0	585.0	590.0	595.0	600.0
230.0	177.7	9999.9	9999.9	9999.9	249.0	39.56	30.73	26.38	22.34	21.79	20.66	19.64	16.58	14.90	12.80	10.79	9.529	8.972	7.856	7.184	6.169	5.574	5.314	4.943	4.492	4.380	3.704	3.464	3.469	3.249	2.997	2.837	2.812	2.664	2.266	2.135	1.877	1.783	1.616	1.620	1.721	1.954	2.103	1.679	1.381	1.451	13.33	86.75	164.7	128.8	52.20	7.016	1.457	0.936	0.834	0.798	0.674	0.651	0.589	0.598	0.550	0.521	0.443	0.468	0.446	0.371	0.370	0.381	0.367	0.332	0.262	0.296	0.289	0.231	0.234	0.220	0.205
235.0	240.5	2539	9999.9	9999.9	6080	395.5	45.67	34.39	27.09	27.82	24.48	21.73	18.82	15.60	14.68	11.63	10.45	9.141	7.998	8.073	6.026	5.877	5.348	5.197	4.795	4.512	3.970	3.635	3.450	3.268	3.461	2.988	2.752	2.698	2.335	2.350	1.929	1.778	1.682	1.544	1.543	1.718	2.008	1.976	1.897	1.434	4.103	21.23	53.28	96.01	149.0	171.0	34.29	15.22	1.479	0.912	0.880	0.711	0.681	0.698	0.607	0.482	0.516	0.595	0.475	0.482	0.396	0.375	0.377	0.274	0.334	0.384	0.323	0.256	0.238	0.284	0.220
240.0	282.7	743.7	3068	9999.9	9999.9	5091	243.4	50.78	39.31	35.33	29.34	25.50	22.21	17.73	15.63	13.96	10.76	9.583	9.099	7.954	7.054	6.763	5.800	5.254	4.984	4.459	4.307	4.069	3.423	3.429	3.313	3.070	2.794	2.685	2.497	2.301	2.076	1.779	1.909	1.569	1.647	1.626	1.642	1.569	2.095	1.935	2.345	5.824	13.03	25.59	68.13	179.1	226.1	178.5	29.60	9.068	1.200	0.812	0.743	0.896	0.704	0.567	0.548	0.568	0.599	0.503	0.426	0.381	0.361	0.319	0.401	0.360	0.398	0.329	0.251	0.327	0.265
245.0	200.2	444.4	842.9	4612	9999.9	9999.9	3896	124.8	56.82	46.34	35.45	30.31	26.58	20.27	17.86	14.59	11.93	11.03	9.266	9.076	7.056	6.495	5.632	5.451	5.331	5.084	4.525	4.335	3.972	3.616	3.055	3.090	2.972	2.586	2.674	2.596	2.259	1.950	1.783	1.613	1.525	1.670	1.587	1.476	1.589	2.183	2.425	3.015	4.106	6.698	16.42	53.14	137.5	260.3	270.6	155.7	24.05	3.016	1.033	0.915	0.807	0.741	0.616	0.632	0.625	0.600	0.614	0.462	0.390	0.491	0.447	0.367	0.358	0.366	0.340	0.388	0.336
250.0	117.6	273.3	509.7	1222	5208	9999.9	9999.9	9999.9	242.6	74.50	54.51	43.59	33.50	25.48	20.22	17.21	14.36	12.90	10.82	9.449	8.315	7.089	6.642	6.088	5.803	5.257	4.752	4.856	4.602	4.026	3.651	3.326	3.148	2.721	2.801	2.621	2.516	2.198	2.022	1.910	1.712	1.590	1.636	1.388	1.483	1.645	1.777	2.504	3.015	3.137	4.990	13.04	32.73	76.05	143.0	223.8	276.5	182.6	132.3	16.69	3.813	0.988	0.917	0.897	0.762	0.701	0.699	0.569	0.563	0.516	0.492	0.415	0.427	0.404	0.416	0.408	0.370
255.0	99.59	136.1	315.1	662.2	1346	2917	9999.9	9999.9	9999.9	302.3	89.16	66.85	47.00	35.26	26.29	21.02	17.12	14.55	12.48	9.847	8.787	8.205	7.564	6.422	6.873	5.509	5.185	4.917	4.877	4.840	4.251	3.584	3.140	2.942	3.104	2.641	2.625	2.380	2.072	1.978	2.039	1.705	1.795	1.692	1.508	1.743	1.612	1.713	1.912	2.323	3.398	5.130	8.738	18.03	32.89	52.25	91.34	203.8	422.3	323.2	42.58	22.77	2.462	1.433	0.976	0.972	0.808	0.806	0.700	0.652	0.572	0.557	0.460	0.412	0.503	0.524	0.484
260.0	98.06	105.1	164.2	446.3	667.2	815.3	4203	9999.9	9999.9	9999.9	235.8	92.58	64.16	47.23	32.17	26.15	19.13	16.19	13.84	11.93	10.88	8.836	7.776	7.147	7.068	6.164	6.014	5.300	5.174	5.223	4.279	4.171	3.317	3.480	2.984	3.093	2.605	2.193	2.459	2.111	2.157	1.892	1.717	1.713	1.744	1.753	1.636	1.579	1.446	1.506	2.153	3.519	4.724	5.949	8.416	12.88	21.81	52.09	165.7	359.1	529.4	308.7	38.06	14.96	1.568	1.181	1.115	0.893	0.831	0.702	0.746	0.652	0.473	0.589	0.472	0.589	0.499
265.0	107.1	107.5	118.2	225.5	575.9	498.2	1106	7594	9999.9	9999.9	2631	168.6	89.74	59.25	40.21	30.75	25.00	19.69	14.97	14.15	12.01	9.922	8.898	8.495	7.206	6.867	6.221	6.008	5.717	5.394	4.625	4.554	4.134	3.534	3.200	3.123	2.639	2.674	2.343	2.304	2.315	1.953	1.886	1.809	2.103	1.752	1.726	1.637	1.361	1.260	1.528	2.061	3.331	4.690	4.221	4.529	6.212	13.06	38.88	99.28	273.2	540.0	646.9	271.8	29.48	5.263	1.363	1.268	1.025	0.939	0.980	0.701	0.811	0.779	0.566	0.767	0.643
270.0	229.3	243.9	211.6	164.9	306.3	567.5	619.9	1918	9398	9999.9	9999.9	9999.9	202.0	100.8	65.12	44.56	33.92	26.18	20.42	16.61	14.02	11.83	10.64	9.829	8.470	8.022	7.377	6.987	6.342	5.993	5.400	5.271	4.756	4.401	3.756	3.676	3.181	2.947	2.784	2.589	2.522	2.555	2.450	2.423	2.587	2.430	2.339	2.139	1.812	1.552	1.421	1.608	1.917	2.695	3.606	4.165	4.356	4.837	10.24	23.63	64.01	149.4	304.9	470.1	434.8	425.8	164.8	18.58	5.591	1.468	1.356	1.139	1.065	0.994	0.808	0.857	0.828
275.0	621.7	662.1	502.5	237.9	177.1	297.5	740.2	834.8	2337	3883	9999.9	9999.9	9999.9	219.2	107.0	68.25	46.95	35.08	27.33	21.83	17.99	14.95	12.83	11.70	10.25	8.768	8.792	7.827	7.511	7.184	6.353	5.632	5.598	5.655	5.404	5.417	4.740	4.310	3.663	3.316	3.474	3.402	3.810	3.386	3.896	3.838	3.859	3.525	3.098	2.363	1.905	1.840	1.713	1.821	2.061	2.694	4.194	5.363	5.988	7.200	16.05	35.22	69.78	108.5	136.5	364.9	756.1	821.6	259.8	26.19	3.637	1.811	1.505	1.292	1.166	1.177	1.154
280.0	1111	1217	877.6	350.0	170.6	200.4	519.7	935.6	899.2	1238	6428	9999.9	9999.9	9999.9	178.4	95.92	63.62	45.83	34.11	24.82	21.27	17.25	14.50	12.39	11.12	10.27	9.306	8.542	7.960	7.668	7.253	6.337	6.744	7.021	7.236	7.614	6.500	6.066	5.578	4.963	4.975	4.667	4.948	5.109	5.529	5.645	5.765	5.713	4.557	3.080	2.581	1.949	1.913	1.727	1.945	2.214	2.501	4.066	5.778	5.693	6.324	9.907	17.59	26.55	33.16	89.72	261.2	636.8	929.4	346.6	41.67	17.66	2.429	2.012	1.584	1.567	1.620
285.0	1658	1781	1238	477.6	172.9	185.1	309.3	839.6	1002	746.2	1989	9999.9	9999.9	9999.9	1467	142.7	87.67	59.53	42.06	30.88	25.39	19.86	16.39	14.51	12.31	11.39	10.09	9.403	8.884	8.082	7.785	7.040	7.579	8.376	9.911	9.854	8.637	8.005	7.324	6.663	5.948	6.125	6.423	7.064	7.732	8.204	7.868	7.743	5.929	4.188	2.935	2.329	2.137	1.827	1.982	2.045	2.282	2.641	3.898	5.654	6.410	6.119	6.536	8.488	10.41	22.86	61.78	162.0	402.1	748.4	938.5	309.1	33.14	8.281	2.326	2.011	1.886
290.0	2143	2322	1546	585.5	214.1	192.1	275.9	519.3	1052	1186	1170	2961	9999.9	9999.9	9999.9	9999.9	404.8	92.95	59.84	42.59	32.02	25.47	20.67	17.57	15.21	13.05	11.57	10.51	9.829	9.050	8.322	7.823	8.314	10.21	11.75	12.00	11.78	10.71	9.387	8.561	7.638	7.439	7.905	8.626	9.809	10.22	9.879	9.291	7.320	5.159	3.587	2.664	2.199	2.158	2.012	2.098	2.155	2.580	2.973	3.585	5.019	6.514	7.366	6.920	6.107	8.691	17.31	39.35	93.76	194.0	386.2	550.9	714.2	504.7	184.1	22.60	8.916
295.0	2323	2497	1673	629.9	240.5	223.8	302.9	459.4	753.7	1397	1574	1493	2862	3977	9999.9	9999.9	8769	148.4	93.80	62.43	43.07	33.96	26.53	22.36	18.07	15.36	14.20	12.33	10.80	10.14	9.809	8.674	8.753	10.96	13.28	12.96	13.23	12.12	10.59	9.601	8.338	8.501	8.839	9.534	10.34	10.94	10.45	9.699	7.632	5.437	3.729	2.950	2.422	2.079	2.287	2.248	2.644	2.789	3.107	3.246	4.185	4.735	6.204	7.961	8.824	7.843	7.799	12.59	24.31	46.49	88.87	126.0	183.3	337.0	762.0	962.0	320.3
300.0	2390	2502	1680	659.7	295.0	286.2	385.0	566.4	816.4	1245	1994	1575	1389	1383	6154	9999.9	9999.9	6633	134.6	85.74	58.09	42.35	31.47	26.70	22.06	17.57	15.48	13.74	12.21	11.13	10.09	9.496	9.196	11.38	12.96	13.71	13.00	12.57	11.11	10.42	9.240	8.906	9.447	9.683	10.56	11.46	10.93	10.38	8.100	5.657	4.025	3.068	2.616	2.528	2.597	2.787	3.171	3.283	3.432	3.712	4.472	4.931	5.626	6.847	8.713	9.921	8.901	7.887	9.538	14.24	23.08	31.31	43.62	80.45	229.0	591.9	966.3
305.0	2513	2504	1679	706.1	351.5	374.7	545.6	763.5	1057	1429	2026	2252	1386	942.0	1864	9999.9	9999.9	9999.9	926.5	117.6	77.80	53.27	40.05	30.83	24.68	20.04	17.65	15.68	13.83	12.71	11.05	9.977	10.05	11.97	13.80	13.68	13.67	13.13	12.23	11.48	9.883	9.560	9.836	9.918	10.90	11.70	10.88	10.51	8.189	5.876	4.174	3.656	3.106	2.947	2.871	3.247	3.715	3.849	4.057	4.777	5.523	5.978	6.614	7.045	8.248	9.454	10.68	10.68	8.063	7.944	9.294	10.55	12.98	21.06	54.21	143.0	351.0
310.0	2533	2522	1691	786.4	440.7	501.2	712.9	1033	1412	1783	2169	2432	2117	1210	1028	2785	9999.9	9999.9	9999.9	9999.9	304.8	79.75	55.17	40.06	31.50	24.59	21.18	18.18	15.91	14.35	12.29	11.05	11.48	12.00	13.80	14.42	14.36	14.08	12.60	11.84	11.02	10.43	10.94	11.15	11.38	12.13	11.48	10.58	8.637	6.296	4.357	4.058	3.417	3.454	3.640	3.793	4.658	4.696	5.540	6.311	6.553	7.366	8.522	8.718	9.482	9.593	10.05	10.66	10.32	9.842	8.518	7.068	6.794	8.340	15.50	35.18	82.23
315.0	2446	2391	1670	840.2	498.3	552.2	785.8	1147	1548	1945	2262	2293	2132	1746	976.7	1149	2698	3727	9999.9	9999.9	6382	302.7	81.77	57.21	40.75	31.67	25.61	20.52	18.26	16.14	14.05	12.71	12.19	12.83	13.73	14.19	15.23	14.38	13.34	11.95	11.28	11.02	11.43	10.82	11.79	11.72	10.74	10.57	8.463	6.049	4.880	4.553	3.968	3.747	4.025	4.283	5.014	5.192	6.095	7.044	7.178	8.223	9.117	9.287	9.921	9.544	10.06	9.534	9.258	9.279	9.749	8.666	6.746	6.014	7.125	11.46	22.12
320.0	2467	2454	1856	1013	596.3	588.4	813.2	1162	1564	1967	2272	2257	1937	1782	1277	833.5	1076	1240	5572	9999.9	9999.9	5291	108.7	76.85	51.85	38.97	30.04	25.13	21.78	18.72	15.99	14.32	12.89	13.69	14.03	14.53	14.67	15.07	13.67	12.57	11.73	11.53	12.04	11.28	11.71	11.80	11.04	11.23	9.194	6.888	5.603	5.083	4.293	4.068	4.304	4.267	4.848	5.578	6.452	7.067	7.880	7.999	9.321	9.278	9.999	9.959	9.641	9.656	9.399	8.138	8.229	8.547	8.186	7.195	5.591	6.205	8.522
325.0	2929	3114	2791	1918	881.8	715.0	873.7	1226	1666	2096	2444	2473	2089	1724	1621	1054	798.2	719.1	1601	9995	9999.9	9999.9	730.6	101.3	70.24	50.09	35.17	29.08	24.60	20.37	17.70	14.97	14.28	14.73	15.39	15.54	16.12	16.61	15.34	14.48	13.63	13.24	13.17	12.86	13.29	13.90	13.37	13.73	12.41	10.28	8.496	8.609	6.584	5.396	4.700	4.791	5.246	5.877	6.459	7.287	7.739	8.796	9.654	9.977	10.68	10.28	10.41	10.21	9.799	8.996	8.511	7.823	8.055	9.117	7.446	6.095	6.331
330.0	4239	4881	4879	4294	2582	1245	1072	1459	1980	2572	3068	3158	2782	2170	1860	1619	1163	816.0	805.3	2575	9999.9	9999.9	9999.9	9999.9	265.0	72.65	51.25	38.03	29.83	24.67	21.25	17.92	16.94	16.98	18.32	19.88	21.33	21.48	20.90	18.96	16.96	16.66	16.62	16.57	18.30	19.20	19.08	20.86	19.73	17.56	16.82	18.10	13.86	9.985	7.320	5.977	6.323	6.605	7.158	8.393	9.107	9.985	10.93	12.03	12.72	12.70	13.13	12.37	12.01	11.28	10.36	9.591	9.240	9.179	9.184	9.069	8.862
335.0	4793	5359	5727	5390	3538	1589	1165	1511	2036	2656	3193	3332	2974	2347	1884	1644	1513	989.6	655.2	897.0	2476	3395	9999.9	9999.9	9999.9	298.2	73.27	52.49	40.18	31.71	25.97	20.98	19.98	19.51	21.01	21.37	23.86	24.18	23.41	19.97	18.69	18.86	18.56	19.31	20.60	21.61	21.42	23.39	22.92	20.49	21.03	23.01	18.11	13.21	9.041	7.053	6.742	6.850	7.462	8.403	9.121	10.96	11.70	12.35	13.52	13.50	13.24	12.97	12.98	11.99	10.97	10.37	9.803	8.930	8.798	8.682	9.098
340.0	4658	5354	5885	5462	3592	1621	1185	1476	1963	2525	3034	3171	2848	2280	1826	1506	1386	1146	635.4	504.6	779.8	996.6	5158	9999.9	9999.9	4737	169.7	66.66	48.68	36.77	29.55	22.99	21.00	20.19	21.03	22.56	25.21	25.01	23.17	20.42	18.59	18.49	18.24	19.09	20.12	21.67	21.57	23.69	23.37	20.61	21.00	23.34	18.35	13.37	9.389	7.262	6.922	6.958	7.356	8.378	8.806	10.35	10.53	11.83	12.34	13.09	12.90	12.94	12.30	11.91	10.56	10.45	9.276	9.146	8.558	7.771	7.767
345.0	4604	5336	5869	5588	3657	1657	1192	1503	1986	2520	3001	3092	2802	2264	1822	1482	1239	1147	770.5	438.7	408.6	449.6	1383	8999	9999.9	9999.9	648.8	88.42	60.71	44.85	33.65	25.57	22.17	21.98	21.98	22.99	25.87	24.70	23.11	21.27	18.74	18.10	18.19	18.12	19.93	21.37	21.77	23.82	23.73	20.89	20.96	23.24	18.92	13.55	9.248	7.218	7.322	7.324	7.625	8.668	8.886	10.16	10.77	11.51	12.03	12.53	12.34	12.12	11.89	11.39	10.50	9.996	9.317	8.651	8.342	8.093	7.571
350.0	4308	5053	5403	5233	3577	1752	1350	1652	2111	2566	2949	2994	2667	2150	1745	1421	1150	945.6	807.9	544.3	337.1	310.9	496.4	2187	9982	9999.9	9999.9	9999.9	244.2	61.91	44.52	31.75	25.28	23.45	22.96	23.50	24.60	24.72	22.36	20.29	18.29	17.38	17.48	17.93	18.66	20.36	20.50	21.74	21.70	19.41	19.83	22.28	18.44	13.38	9.623	7.440	7.493	7.662	8.180	9.057	9.482	10.38	11.10	11.34	11.83	12.30	11.99	11.75	11.46	10.72	9.710	9.161	8.872	8.539	8.086	7.399	7.305
355.0	3956	4399	4607	4346	3132	1708	1540	1920	2356	2669	2894	2801	2451	1976	1589	1312	1058	822.9	624.2	579.4	399.2	260.1	266.0	610.1	2336	3132	9999.9	9999.9	9999.9	283.3	62.56	43.09	31.72	26.70	24.13	24.01	23.41	23.90	21.66	19.26	18.04	16.50	16.54	16.79	16.86	18.29	17.78	18.94	18.90	16.00	16.86	18.77	16.04	12.08	8.943	7.723	7.688	8.182	9.053	9.794	10.88	11.22	11.44	11.55	11.51	11.37	11.37	10.76	10.90	9.821	8.986	8.334	8.195	7.233	7.509	6.760	7.168
360.0	3473	3859	3953	3718	2717	1569	1486	1858	2284	2548	2656	2534	2219	1774	1434	1183	952.8	741.7	533.7	454.6	460.4	282.4	201.1	246.1	618.0	808.5	4479	9999.9	9999.9	4492	84.36	56.28	39.98	31.39	25.86	24.41	23.67	23.98	21.16	18.42	15.97	15.34	15.56	15.40	15.87	17.05	16.22	17.67	17.32	14.39	14.74	16.31	13.91	11.07	8.474	7.328	7.651	8.258	8.585	9.686	10.81	10.69	11.34	11.04	10.57	10.78	10.94	9.802	9.943	9.147	7.728	7.555	7.468	6.944	6.786	6.129	6.565
365.0	2946	3286	3352	3198	2335	1408	1324	1690	2064	2279	2361	2238	1934	1556	1251	1041	835.0	656.3	468.0	349.8	396.0	364.7	194.9	152.3	225.6	266.4	1114	7685	9999.9	9999.9	3583	77.25	51.84	37.80	29.34	25.91	23.86	23.57	20.61	18.30	15.83	14.89	14.42	13.72	14.51	15.29	15.28	15.56	15.03	12.74	13.11	14.26	12.12	9.885	7.471	6.917	7.151	7.458	8.133	8.626	9.440	9.927	10.10	10.46	10.12	9.911	9.557	8.924	8.885	8.053	7.432	6.928	7.136	6.437	5.925	5.490	5.520
370.0	2452	2712	2718	2569	1925	1233	1211	1529	1854	2013	2052	1938	1637	1310	1052	873.4	721.9	565.5	398.6	279.3	261.8	333.7	286.8	153.9	132.9	134.9	325.2	1828	8570	9999.9	9999.9	9999.9	227.5	53.97	38.03	30.81	26.00	23.48	20.30	17.61	15.59	14.10	13.30	13.15	13.27	13.25	12.87	13.44	12.29	10.96	10.83	12.13	10.22	8.544	6.838	6.180	6.594	7.185	7.476	8.188	8.353	8.767	9.179	9.222	8.798	8.751	8.089	7.724	7.666	7.198	6.642	6.154	5.760	5.548	5.120	4.934	4.980
375.0	2132	2339	2286	2118	1654	1143	1166	1456	1799	1893	1907	1787	1512	1170	930.9	766.2	641.3	515.9	371.0	257.1	216.9	233.1	310.7	267.8	154.3	128.8	149.1	480.1	1989	2971	9999.9	9999.9	9999.9	271.3	52.42	38.35	31.59	25.22	21.18	18.00	15.45	14.28	12.83	12.97	12.56	12.53	12.23	12.46	11.16	9.508	9.492	10.40	9.078	7.601	6.782	5.933	6.136	6.864	7.273	7.832	8.134	8.431	8.899	8.614	8.366	7.965	7.311	7.513	6.883	6.662	6.368	5.119	5.210	4.930	4.480	4.584	4.326
380.0	1959	2093	2014	1841	1459	1037	1069	1330	1587	1712	1738	1629	1398	1065	835.5	676.9	577.0	469.5	336.1	241.8	201.5	198.6	246.4	315.0	221.9	146.4	125.9	182.7	514.8	747.3	4123	9999.9	9999.9	3801	157.9	47.21	36.53	29.77	22.78	19.20	15.54	14.19	12.58	12.63	12.05	11.60	11.06	11.34	10.24	8.958	8.617	9.717	8.385	7.187	6.198	5.768	5.787	6.221	6.448	7.253	7.290	7.869	8.584	7.830	7.913	7.327	6.866	6.802	6.294	6.180	5.813	5.334	4.931	4.637	4.209	3.941	4.211
385.0	1603	1726	1683	1588	1235	889.7	915.1	1110	1338	1434	1466	1379	1177	915.0	704.8	567.0	481.7	398.1	292.8	212.1	180.4	173.1	182.2	252.8	275.4	157.0	112.2	109.7	178.1	231.2	1011	6603	9999.9	9999.9	2993	61.65	43.16	33.51	24.70	19.50	15.41	13.97	12.48	11.49	11.27	10.61	10.32	10.20	9.217	7.904	7.684	8.273	7.491	6.559	5.485	5.180	5.590	5.839	5.985	6.275	6.398	6.663	7.228	6.714	7.104	6.209	6.175	5.723	5.714	5.261	5.111	4.791	4.216	4.399	3.923	3.548	3.791
390.0	1286	1338	1293	1214	957.8	722.0	745.4	896.3	1074	1146	1157	1092	939.7	716.8	561.7	454.2	387.1	316.9	236.3	174.2	151.2	146.8	142.7	159.6	223.3	210.3	115.2	77.96	88.63	101.8	279.8	1557	6895	9999.9	9999.9	9999.9	192.1	43.60	30.11	22.52	17.37	14.82	12.48	11.45	10.87	10.24	9.734	9.259	8.209	6.778	6.696	7.187	6.388	5.595	4.843	4.796	4.949	5.098	5.085	5.208	5.622	5.623	5.881	5.677	5.830	5.163	5.237	4.945	4.684	4.484	4.207	3.802	3.576	3.639	3.678	3.193	3.152
395.0	1047	1102	1046	974.7	796.1	613.1	638.7	750.5	909.6	967.9	962.7	912.6	778.6	592.9	467.6	377.9	323.3	271.0	200.9	147.9	131.0	129.7	127.7	125.5	148.0	196.1	178.9	82.28	60.89	62.10	105.9	393.0	1591	2797	9999.9	9999.9	9999.9	62.00	40.55	28.73	21.50	16.17	13.53	11.66	10.88	9.941	9.228	8.830	7.654	6.374	6.110	6.626	5.905	5.018	4.654	4.268	4.587	4.820	4.778	4.721	4.946	5.004	5.263	5.352	4.858	4.567	4.455	4.417	4.133	3.863	3.375	3.370	3.287	2.960	2.935	3.440	3.576
400.0	916.8	950.8	909.0	834.1	669.9	525.1	549.8	654.3	782.1	837.5	843.1	793.3	683.6	523.5	399.3	327.5	278.6	235.4	178.4	134.8	119.7	119.0	116.9	108.6	117.9	141.5	191.1	122.8	59.23	50.07	59.43	127.5	398.5	681.6	3731	9999.9	9999.9	3199	56.85	33.94	25.23	18.62	14.14	12.34	10.89	9.495	8.992	8.209	7.383	6.162	5.445	6.227	5.252	4.891	4.554	4.194	4.029	4.565	4.310	4.433	4.422	4.523	4.789	4.511	4.362	4.361	3.901	3.831	3.771	3.538	3.232	3.098	2.839	2.648	2.622	2.885	3.483
405.0	745.7	813.9	754.7	710.6	562.0	433.3	460.5	543.9	655.0	699.7	704.6	666.0	580.4	437.1	338.4	275.9	234.9	197.1	152.3	116.0	104.8	104.9	102.2	98.22	98.82	103.2	144.8	166.3	78.19	47.34	46.12	62.27	127.2	195.5	894.2	5300	9999.9	9999.9	2584	49.65	28.72	21.44	15.81	12.82	11.13	9.963	8.540	7.957	6.579	5.694	5.078	5.708	4.939	4.362	4.020	3.700	3.898	4.097	4.049	4.178	3.985	4.154	4.322	3.832	4.035	3.874	3.343	3.511	2.968	3.045	2.858	2.749	2.439	2.474	2.386	2.554	2.699
410.0	587.5	629.2	568.6	531.0	434.3	338.2	351.4	416.4	500.1	533.9	529.3	501.6	440.0	336.9	263.8	219.3	187.4	156.1	121.0	96.69	86.78	86.93	83.41	80.82	79.51	76.02	84.98	124.9	127.0	65.78	42.06	42.32	57.81	77.03	236.0	1239	5474	9999.9	9999.9	9999.9	164.7	27.94	19.99	15.36	12.05	10.43	8.461	7.868	6.598	5.350	4.937	5.195	4.411	4.056	3.717	3.440	3.571	3.547	3.626	3.565	3.535	3.634	3.808	3.373	3.398	3.202	3.030	3.017	2.755	2.586	2.512	2.267	2.197	2.117	2.132	2.121	2.020
415.0	483.9	501.1	448.3	404.7	343.2	263.3	276.4	328.4	388.2	417.6	407.8	388.3	337.7	266.4	210.8	175.6	151.1	125.3	97.82	79.99	72.40	74.17	70.20	69.01	68.77	63.89	61.10	67.73	107.3	113.9	52.48	35.56	37.46	44.35	80.66	306.5	1257	2643	9999.9	9999.9	9999.9	52.81	26.98	18.79	14.47	11.86	8.959	8.024	6.491	5.551	5.060	5.096	4.213	3.919	3.519	3.325	3.450	3.501	3.160	3.332	3.221	3.334	3.415	2.905	2.892	2.828	2.287	2.455	2.580	2.347	2.126	2.390	1.929	1.960	1.806	1.771	1.894
420.0	405.5	439.1	398.3	352.7	299.9	232.6	244.1	284.6	338.1	355.5	350.1	334.7	295.4	225.8	180.0	147.7	132.9	109.8	86.40	70.38	64.75	64.62	62.86	60.66	61.63	58.32	52.92	48.72	67.32	118.4	79.39	37.13	30.76	32.92	42.79	94.35	309.1	628.7	3274	9999.9	9999.9	2923	45.63	22.78	17.23	12.85	10.01	8.255	6.367	5.346	4.930	5.265	4.300	3.773	3.617	3.204	3.214	3.483	2.847	3.102	3.036	3.012	3.221	2.745	2.634	2.777	2.356	2.228	2.331	2.109	2.125	2.202	1.854	1.759	1.811	1.534	1.781
425.0	392.8	369.6	342.7	305.4	255.2	203.7	208.1	253.2	292.3	315.9	303.1	289.0	252.4	196.6	155.8	133.4	115.4	96.26	76.06	63.17	57.72	59.99	57.33	56.02	55.83	54.06	48.05	42.39	45.60	84.70	107.8	52.87	28.66	27.70	29.63	43.17	92.64	168.9	773.6	4360	9999.9	9999.9	2374	37.82	20.97	15.45	11.21	9.095	7.081	5.554	4.891	5.042	4.499	3.855	3.469	3.230	3.097	3.009	3.142	2.914	3.099	3.095	3.133	2.778	2.501	2.601	2.265	2.100	2.019	1.901	2.113	1.898	1.769	1.656	1.782	1.561	1.654
430.0	1528	312.6	285.3	250.4	206.6	174.7	174.2	208.8	240.0	259.0	249.7	233.6	203.0	165.1	131.4	111.3	96.25	81.21	65.53	54.43	51.45	51.79	49.93	48.75	48.62	47.29	42.84	38.53	37.48	47.61	79.78	82.43	43.73	26.12	24.18	26.98	40.59	58.99	197.0	1012	4453	9999.9	9999.9	9429	150.5	22.70	14.82	11.70	8.412	6.271	5.140	5.049	4.565	4.182	3.705	3.262	3.608	3.056	3.045	2.781	2.716	2.926	2.819	2.616	2.417	2.340	2.066	2.021	1.795	1.823	1.823	1.691	1.527	1.590	1.500	1.465	1.361
435.0	8004	421.1	236.1	207.2	175.6	146.4	148.8	170.2	202.2	212.1	199.7	187.5	166.9	132.5	109.5	92.48	79.69	70.49	56.52	47.40	43.94	44.44	43.16	43.00	40.97	41.10	37.46	35.47	34.48	35.34	44.34	71.17	73.25	34.98	22.32	20.84	25.24	31.18	62.66	246.8	1019	2515	9999.9	9999.9	9999.9	47.19	22.10	15.35	10.93	7.522	5.910	5.911	4.978	4.324	3.806	3.595	3.864	3.412	3.097	2.839	2.787	2.888	2.645	2.552	2.386	2.177	2.114	2.003	1.856	1.638	1.588	1.454	1.816	1.509	1.483	1.416	1.344
440.0	9999.9	1496	211.9	187.3	145.8	130.7	130.3	150.0	179.4	183.8	179.8	164.5	145.5	119.1	97.07	81.64	72.20	61.63	51.65	42.24	39.77	40.77	39.73	38.73	38.78	37.09	35.81	33.88	31.96	30.96	32.00	44.69	78.39	55.10	24.57	19.35	19.85	22.65	31.00	73.69	247.8	590.9	3065	9999.9	9999.9	2670	39.84	19.81	13.02	9.315	7.265	6.188	5.349	4.471	3.851	3.796	3.742	3.508	3.169	2.877	2.644	2.722	2.337	2.324	2.342	2.007	2.057	1.869	1.774	1.682	1.445	1.318	1.683	1.403	1.389	1.326	1.307
445.0	9999.9	6506	222.2	173.2	137.5	120.2	121.1	138.7	157.0	165.3	163.1	150.3	136.4	108.9	88.18	75.18	62.76	55.58	46.41	40.50	36.18	36.80	37.16	36.29	37.06	34.83	33.52	31.00	30.90	29.57	27.40	30.34	54.66	70.90	36.58	19.24	17.26	18.78	21.84	32.24	73.40	153.8	719.2	4070	9999.9	9999.9	2056	35.11	16.88	11.38	8.608	6.735	5.892	4.837	4.119	4.017	3.773	3.559	3.574	3.037	2.926	2.592	2.393	2.185	2.337	2.082	1.925	1.993	1.715	1.743	1.506	1.485	1.530	1.391	1.364	1.336	1.253
450.0	6693	9999.9	2451	155.1	132.5	112.5	109.8	123.7	140.6	148.9	140.5	132.8	114.9	94.61	79.87	66.87	56.75	48.75	41.16	36.92	33.43	34.02	33.19	33.09	34.03	32.20	31.16	29.48	28.64	28.04	25.39	25.63	31.77	53.13	56.82	30.28	17.47	16.62	16.80	20.18	30.82	50.86	181.3	943.2	4136	9999.9	9999.9	8598	128.2	16.86	11.49	9.460	7.253	5.737	4.879	4.359	3.918	3.734	3.348	3.333	3.023	2.596	2.561	2.287	2.141	2.178	1.942	1.812	1.754	1.857	1.581	1.525	1.477	1.362	1.312	1.268	1.385
455.0	1833	9999.9	9804	320.7	120.5	104.9	101.0	108.8	121.0	123.6	123.1	113.1	99.65	83.11	69.66	58.23	49.34	42.51	36.84	32.03	29.87	29.42	30.39	29.60	30.22	28.79	27.93	26.61	26.72	27.01	23.68	22.30	21.89	28.35	47.01	49.94	23.98	14.67	14.39	15.32	17.78	24.41	55.46	228.1	944.5	2462	9999.9	9999.9	9999.9	34.53	17.07	12.57	9.231	7.276	5.659	4.716	4.428	3.705	3.303	2.998	3.031	2.774	2.621	2.278	2.138	2.191	1.953	1.825	1.636	1.758	1.524	1.396	1.317	1.306	1.272	1.276	1.246
460.0	552.5	7301	9999.9	1001	122.0	95.09	87.79	98.47	107.5	113.1	108.7	102.8	87.66	73.27	65.14	51.13	45.14	38.96	32.75	30.08	27.00	27.86	27.23	26.68	27.12	26.40	25.69	25.43	24.74	24.77	22.07	20.72	19.15	19.80	29.38	50.95	35.83	16.38	13.06	12.93	14.26	16.02	25.79	65.80	228.8	574.6	2716	9999.9	9999.9	1975	31.76	17.54	11.89	9.154	6.824	5.376	5.005	4.059	3.834	3.218	2.955	2.964	2.610	2.289	2.310	2.034	1.893	1.710	1.604	1.816	1.508	1.376	1.375	1.176	1.261	1.265	1.232
465.0	267.4	2663	9999.9	6803	152.7	94.88	88.37	95.20	100.7	103.0	103.3	87.81	81.53	69.86	56.78	49.09	41.31	35.91	30.20	28.95	25.41	25.55	24.34	24.72	25.37	24.21	23.97	23.17	23.23	23.26	21.01	18.67	17.72	16.88	19.48	36.59	45.07	23.64	12.78	11.40	12.07	13.69	17.51	27.29	66.38	146.9	633.5	3374	9999.9	9999.9	1781	33.52	16.17	11.72	8.442	6.604	6.294	4.698	4.132	3.568	3.301	3.053	2.905	2.531	2.448	2.108	1.964	1.815	1.695	1.599	1.617	1.573	1.510	1.249	1.290	1.322	1.225
470.0	224.7	747.5	8677	9999.9	2461	95.37	85.35	83.60	92.33	90.68	89.86	82.35	72.59	60.74	51.53	43.55	38.69	32.40	27.04	25.86	22.99	22.29	21.99	22.53	22.48	21.80	21.87	21.52	21.35	20.65	19.10	17.45	15.89	14.32	14.39	19.58	33.20	35.28	19.39	11.12	10.66	11.43	13.45	16.74	26.78	46.35	157.4	777.5	3540	9999.9	9999.9	7636	132.4	17.22	11.21	8.671	7.248	5.445	4.401	3.989	3.430	3.085	2.987	2.786	2.507	2.314	2.071	1.869	1.844	1.635	1.550	1.511	1.379	1.291	1.279	1.297	1.282
475.0	240.8	285.8	2358	9999.9	9999.9	272.0	82.90	76.22	79.93	83.98	84.07	72.43	66.19	53.98	45.94	38.40	32.71	28.30	24.19	21.95	20.45	20.80	19.76	19.86	19.19	19.55	18.81	18.62	18.39	18.05	17.38	15.46	13.88	12.78	11.78	12.31	17.25	29.76	29.68	14.36	9.063	9.138	9.813	11.31	14.61	19.67	45.28	185.1	803.2	2335	7875	9999.9	9324	40.22	14.81	10.37	8.346	6.206	4.948	4.023	3.616	3.110	2.910	2.488	2.251	2.152	1.994	1.808	1.662	1.714	1.388	1.342	1.372	1.242	1.119	1.094	1.151
480.0	227.5	197.6	635.1	9013	9999.9	737.1	79.36	79.34	79.02	75.53	77.47	65.67	62.03	50.29	43.88	34.11	30.09	25.26	22.34	21.54	17.94	19.14	18.82	17.55	17.82	17.51	17.10	16.96	16.20	16.40	16.66	14.23	12.92	12.02	11.10	10.16	11.54	18.34	30.51	21.77	10.04	8.025	8.216	9.197	10.19	12.41	18.76	50.64	189.7	534.2	1977	9999.9	9999.9	2337	34.66	13.99	9.915	7.887	6.009	4.770	3.873	3.387	3.001	2.720	2.450	2.350	2.093	1.951	1.792	1.700	1.374	1.271	1.425	1.145	1.038	1.199	1.048
485.0	192.7	203.9	232.2	3439	9999.9	5396	106.3	78.12	77.37	71.19	69.65	65.18	57.97	47.46	40.91	32.87	28.41	24.72	21.56	18.80	17.59	17.75	17.63	16.64	17.37	16.10	15.68	16.47	15.08	15.78	15.04	14.00	12.56	11.81	10.33	9.230	9.564	11.88	23.32	27.49	13.93	8.300	7.893	7.864	8.705	9.727	11.51	19.05	51.07	128.9	454.8	2775	9999.9	9999.9	1971	29.63	12.55	9.077	7.248	5.658	4.235	3.786	3.364	2.699	2.435	2.464	2.044	1.862	1.712	1.679	1.306	1.355	1.440	1.162	1.123	1.156	1.129
490.0	137.2	208.6	156.4	886.4	9999.9	9999.9	2168	81.25	75.27	69.89	64.87	61.20	53.77	44.90	38.19	31.15	26.31	22.90	19.66	17.74	16.42	15.83	15.76	15.61	16.02	15.03	14.22	14.60	14.57	14.77	14.01	12.96	11.99	10.72	9.414	8.388	8.417	8.970	13.09	21.74	22.10	12.79	7.630	7.093	7.820	8.101	9.014	11.06	18.48	35.92	109.8	632.0	2885	9999.9	9999.9	7871	155.8	14.38	9.162	7.004	5.461	4.349	3.742	3.055	2.770	2.470	2.143	1.885	2.015	1.613	1.479	1.427	1.324	1.272	1.199	1.160	1.078
495.0	93.69	166.8	181.7	269.7	2754	9999.9	9999.9	218.0	75.68	69.63	62.12	56.88	50.61	42.60	33.75	28.08	22.66	21.16	17.90	15.98	15.19	15.00	13.92	13.40	14.29	13.64	13.13	13.40	12.93	13.18	12.72	11.01	10.52	9.368	8.975	8.191	7.693	7.754	8.225	12.28	20.41	19.98	10.82	6.822	6.900	6.957	7.051	8.246	9.925	13.77	30.90	148.5	652.4	2279	6849	9999.9	9999.9	43.42	13.86	8.504	6.743	5.337	4.297	3.206	2.913	2.566	2.363	1.876	1.900	1.574	1.510	1.408	1.381	1.189	1.245	1.046	0.972
500.0	89.09	127.8	193.1	142.2	701.8	9999.9	9999.9	2008	77.71	68.81	61.73	53.11	48.28	39.50	32.50	27.04	20.71	20.06	17.07	14.79	14.52	13.20	12.69	12.47	13.28	12.85	12.09	12.30	12.39	12.22	11.52	10.69	9.344	9.036	8.158	7.726	7.367	7.247	6.952	7.956	13.59	21.75	15.64	8.016	6.456	6.344	6.188	7.075	7.961	7.996	12.51	39.37	153.2	518.0	1670	8442	9999.9	2577	38.27	11.32	7.446	5.750	4.719	3.694	2.956	2.520	2.346	2.043	1.832	1.638	1.532	1.566	1.361	1.152	1.282	0.984	0.921
505.0	83.14	98.62	188.1	128.9	223.7	3835	9999.9	8883	96.29	67.60	61.18	49.65	43.48	36.43	31.96	26.18	21.20	18.67	16.21	13.71	13.23	12.45	11.76	11.44	11.78	12.02	11.58	11.40	11.42	11.47	11.00	9.882	8.922	8.543	7.642	7.298	6.773	6.818	6.260	6.056	8.546	17.02	19.94	10.96	6.512	5.719	5.510	6.060	6.382	6.357	7.309	14.10	40.55	123.8	384.5	2185	9999.9	9999.9	2285	30.50	9.611	6.776	5.023	4.130	3.046	2.721	2.451	1.968	1.701	1.643	1.447	1.443	1.214	1.104	1.126	1.024	1.021
510.0	75.21	79.92	131.6	164.5	110.5	959.2	9999.9	9999.9	1681	73.48	63.49	49.01	41.02	35.60	29.91	23.70	19.68	17.21	14.53	13.14	12.69	11.44	11.20	10.72	10.97	10.84	10.82	10.40	10.28	10.48	9.653	9.221	8.018	7.703	6.838	6.809	6.360	6.417	5.887	5.736	6.342	9.577	15.94	15.81	9.266	5.442	5.047	5.192	5.324	5.248	5.697	7.726	13.93	33.25	92.85	496.9	2595	8597	9999.9	6595	159.2	10.79	6.269	4.527	3.692	2.895	2.410	2.092	1.763	1.737	1.420	1.367	1.280	1.195	1.062	1.032	0.979
515.0	67.11	71.55	80.71	156.9	114.0	267.8	2756	9999.9	9999.9	187.8	61.99	48.96	41.01	34.55	27.84	22.36	18.71	17.14	13.81	12.10	11.59	11.13	10.54	10.03	10.19	9.802	9.452	9.363	9.123	9.167	9.192	7.935	7.864	6.776	6.256	6.092	5.889	5.738	5.556	5.121	5.268	6.075	8.942	15.04	14.08	7.580	4.693	4.649	4.468	4.454	4.474	5.673	6.977	11.65	26.00	116.9	585.5	1938	4653	9999.9	9204	43.28	9.485	5.822	4.227	3.354	2.842	2.461	2.073	1.802	1.482	1.401	1.324	1.140	0.896	1.001	0.971
520.0	66.95	60.42	64.69	129.6	141.2	108.3	685.2	9999.9	9999.9	1815	69.78	52.13	39.41	32.98	28.38	21.80	17.52	14.64	13.31	11.75	10.77	10.44	9.638	9.647	9.143	8.872	8.791	9.036	7.650	8.986	8.765	7.121	7.136	6.222	6.159	5.535	5.607	5.418	4.763	4.699	4.740	5.070	6.031	10.28	14.91	11.02	5.373	3.948	3.921	3.793	3.889	4.578	5.235	6.290	10.14	31.12	136.5	439.5	1098	5896	9999.9	2599	38.02	8.331	5.074	3.779	3.221	2.476	2.059	1.731	1.667	1.492	1.288	1.162	1.079	0.849	0.859
525.0	64.91	54.71	54.55	90.93	164.0	80.20	205.3	3980	9999.9	9350	87.10	56.82	42.29	33.26	27.03	20.51	17.03	13.86	12.44	11.20	10.47	9.732	9.714	8.910	8.890	8.359	8.246	8.025	8.135	8.035	8.212	6.348	6.990	5.816	5.667	5.119	4.787	4.591	4.848	4.530	4.070	4.487	4.750	6.411	12.16	12.86	7.368	3.968	3.613	3.374	3.370	3.709	4.607	4.956	5.697	11.34	35.44	104.0	252.9	1452	7446	9999.9	2308	29.95	6.732	4.600	3.597	3.027	2.190	1.914	1.771	1.428	1.208	1.167	1.085	0.892	0.844
530.0	57.21	53.35	51.26	58.94	137.5	107.7	91.15	993.2	9999.9	9999.9	1415	61.37	43.60	33.34	26.08	19.47	17.35	14.06	12.14	10.60	9.844	9.021	8.738	8.304	8.015	8.071	7.821	7.525	7.326	7.745	7.259	6.508	6.004	5.530	5.144	4.943	4.515	4.519	4.369	4.177	3.907	3.959	3.925	4.422	6.875	10.99	10.08	5.812	3.466	3.044	3.073	3.162	3.617	4.294	4.502	5.853	12.01	27.49	61.67	330.3	1828	6028	9999.9	5700	160.9	8.277	4.557	3.272	2.604	2.213	1.807	1.513	1.405	1.188	1.056	1.048	0.937
535.0	58.70	52.61	49.79	44.33	79.36	147.1	71.69	272.2	2821	9999.9	9999.9	147.2	44.61	34.76	25.73	19.64	17.36	13.59	11.82	9.842	9.058	8.494	8.472	7.858	7.444	7.104	6.955	7.129	6.959	7.215	6.660	5.896	5.551	5.441	4.642	4.320	4.056	4.091	3.947	3.497	3.496	3.557	3.742	3.629	3.993	6.540	9.802	8.748	4.310	2.835	2.748	2.716	2.972	3.350	3.858	4.300	5.903	9.626	17.55	77.77	412.1	1355	3463	9999.9	7145	43.93	7.293	4.222	3.299	2.380	1.848	1.574	1.560	1.236	1.101	0.970	0.882
540.0	63.82	60.04	50.67	43.57	48.28	140.2	91.49	105.5	701.9	9999.9	9999.9	1388	51.46	35.83	26.21	20.50	15.67	13.69	11.10	9.882	8.650	8.604	7.949	7.198	6.924	6.904	6.780	6.086	5.774	6.623	6.101	5.437	5.046	4.956	4.426	4.058	3.789	3.992	3.538	3.086	3.302	3.341	3.464	3.345	3.362	4.362	7.298	9.418	6.032	3.066	2.381	2.556	2.621	3.011	3.441	3.995	4.149	4.990	7.375	20.76	96.11	307.1	797.0	4246	9999.9	2609	38.06	6.081	4.074	2.900	2.084	1.791	1.353	1.203	1.044	0.978	0.866
545.0	84.95	74.28	68.75	41.44	37.07	106.4	119.1	69.00	213.4	4028	9999.9	8080	65.84	38.97	25.55	20.65	15.14	13.62	11.00	9.947	8.671	8.079	7.611	7.305	6.862	6.279	6.384	6.359	5.683	6.004	5.895	5.052	4.810	4.529	4.413	3.935	3.534	3.694	3.242	2.917	2.860	2.933	3.055	3.464	3.030	3.150	4.745	7.868	7.659	4.064	2.424	2.270	2.461	2.805	2.815	3.458	3.687	3.663	4.189	7.646	24.80	72.62	183.5	1006	5196	9971	2230	29.25	5.029	3.286	2.400	1.950	1.552	1.323	1.059	1.107	0.826
550.0	98.84	104.4	82.61	48.28	33.56	60.74	136.4	72.57	96.74	1005	9999.9	9999.9	1007	45.23	28.50	21.10	16.31	12.88	10.81	9.553	8.012	7.528	6.977	6.532	6.310	5.405	5.884	5.579	5.513	5.868	4.995	4.840	4.612	4.291	3.747	3.622	3.277	3.337	3.044	2.978	2.733	2.837	2.892	2.995	2.811	2.699	3.348	5.020	6.837	5.704	3.345	2.263	2.191	2.363	2.459	2.689	3.250	3.465	3.349	3.883	8.239	19.23	44.64	228.8	1235	4398	7052	3439	161.1	6.756	3.274	2.504	1.900	1.429	1.191	1.030	0.977
555.0	112.5	132.9	103.2	51.44	32.42	40.96	106.3	113.0	70.86	277.9	2735	9999.9	9999.9	96.20	32.30	22.48	17.11	12.99	10.68	8.342	8.296	6.855	6.367	5.989	5.873	5.624	5.587	5.404	5.197	5.055	4.685	4.506	3.842	4.219	3.765	3.329	3.130	3.176	3.031	2.698	2.724	2.536	2.684	2.780	2.584	2.711	2.955	3.070	4.398	5.878	4.619	2.754	1.978	2.080	2.158	2.360	2.485	2.859	3.058	2.833	3.949	6.757	12.61	53.91	278.3	985.5	2182	6418	2777	44.42	5.815	3.082	2.116	1.719	1.425	1.046	1.072
560.0	144.6	145.2	120.1	55.47	32.27	33.64	68.81	138.0	69.91	115.4	689.8	9999.9	9999.9	884.5	35.77	23.96	16.34	12.83	9.415	8.198	8.075	6.916	6.314	6.272	5.805	5.278	4.968	5.102	4.959	4.975	4.778	4.291	3.731	3.991	3.579	3.669	3.161	2.881	3.136	2.593	2.489	2.594	2.652	2.395	2.551	2.724	2.670	2.475	3.051	4.499	4.853	3.458	2.154	1.870	2.034	2.149	2.081	2.221	2.856	2.541	2.720	3.557	5.039	14.61	64.62	222.9	498.0	2423	6334	2488	38.41	4.256	2.662	2.024	1.585	1.139	1.208
565.0	171.9	178.2	142.3	60.71	28.31	29.89	45.88	140.1	91.91	85.12	223.4	3812	9999.9	5773	46.38	25.95	18.22	13.68	10.71	8.639	7.683	7.103	6.491	6.177	5.870	5.485	4.492	4.787	4.585	4.542	4.410	3.922	3.859	3.733	3.530	3.761	3.179	3.137	2.905	2.918	2.259	2.329	2.564	2.486	2.570	2.722	2.374	2.518	2.400	3.222	4.514	4.056	2.479	1.767	1.752	1.881	1.859	2.104	2.336	2.674	2.384	2.424	3.035	5.434	16.88	52.57	114.7	563.5	2822	5998	1994	28.36	3.392	2.340	1.611	1.518	1.214
570.0	197.2	205.2	155.3	60.56	28.58	29.59	34.76	97.03	129.1	80.67	119.1	967.5	9999.9	9999.9	718.7	30.26	19.01	13.83	10.93	9.231	7.833	7.064	5.963	5.794	5.577	4.949	4.544	4.621	4.293	4.186	3.887	3.749	3.638	3.545	3.471	3.632	3.288	3.122	2.688	2.765	2.321	2.397	2.356	2.490	2.500	2.626	2.312	2.441	2.123	2.256	2.754	3.728	3.383	2.225	1.686	1.710	1.722	1.921	1.830	2.224	2.379	2.190	2.283	2.803	5.840	13.78	28.12	128.6	657.7	2384	4075	2137	154.5	5.483	2.032	1.731	1.297
575.0	221.8	219.4	152.1	62.72	26.20	26.29	34.50	58.02	141.6	100.4	97.23	292.5	2672	9999.9	8674	61.24	22.30	15.21	11.07	8.728	8.183	7.117	6.564	6.175	4.991	4.436	4.396	4.276	3.939	4.016	3.530	3.581	3.463	3.828	3.336	3.335	3.236	3.098	2.566	2.515	2.498	2.496	2.184	2.557	2.227	2.339	2.208	2.201	2.047	1.982	1.849	2.585	3.214	2.801	1.800	1.447	1.599	1.648	1.547	1.710	2.072	2.465	2.183	2.011	2.689	4.805	7.983	30.75	148.8	533.9	1147	3379	2617	44.59	4.090	2.202	1.469
580.0	222.2	221.8	150.5	62.45	24.96	27.47	29.83	46.21	118.0	129.8	93.87	139.3	674.4	9999.9	9999.9	175.7	25.03	16.93	11.90	9.281	8.073	7.237	6.401	5.733	5.233	4.762	4.345	3.949	3.951	4.295	3.656	3.284	3.376	3.740	3.228	3.117	3.050	2.836	2.708	2.525	2.318	2.275	2.072	2.247	2.395	2.173	2.310	2.136	1.916	1.757	1.585	1.749	2.805	3.070	2.387	1.585	1.395	1.504	1.525	1.376	1.824	2.047	2.133	1.763	1.988	2.589	3.294	8.699	34.99	121.3	260.7	1193	3719	2088	37.10	3.261	1.909
585.0	211.1	219.0	148.7	59.16	25.30	26.24	29.47	44.06	85.90	151.0	94.57	98.05	213.9	3595	9999.9	3357	30.44	17.55	12.93	9.779	7.443	7.089	6.567	6.030	5.395	4.976	4.485	4.093	4.144	4.075	3.416	3.261	2.826	3.515	3.609	3.254	2.860	2.809	2.639	2.541	2.352	2.090	1.990	2.269	2.244	1.972	2.301	2.051	2.005	1.559	1.402	1.521	1.800	2.755	2.757	1.912	1.339	1.435	1.542	1.212	1.387	1.684	1.869	2.127	1.721	1.859	2.100	3.408	9.343	28.87	60.70	276.1	1540	3585	1402	26.57	2.383
590.0	187.1	202.8	145.0	59.10	24.88	25.34	28.61	40.10	63.17	141.5	119.2	89.25	105.3	885.6	9999.9	9999.9	440.8	20.43	13.55	10.70	8.577	7.506	6.515	5.823	4.988	5.057	4.359	4.315	3.931	3.941	3.726	3.200	2.713	3.240	3.664	3.635	2.755	2.764	2.558	2.401	2.105	2.013	2.012	2.116	2.121	2.035	2.137	1.981	1.763	1.426	1.206	1.295	1.350	1.998	2.638	2.148	1.521	1.340	1.327	1.279	1.249	1.325	1.493	1.937	1.710	1.508	1.637	2.116	3.254	7.802	15.10	63.31	356.4	1353	2396	1358	142.1
595.0	184.1	172.7	124.0	53.60	25.70	21.77	28.07	42.43	56.84	102.7	149.7	91.35	78.70	238.9	2596	9999.9	4964	34.44	15.43	11.28	8.940	7.557	6.464	5.358	5.288	4.414	3.943	3.809	3.868	3.832	3.339	3.207	2.818	2.884	3.311	3.792	2.863	2.636	2.485	2.179	2.185	1.721	1.949	1.917	1.955	1.933	2.062	1.935	1.626	1.399	1.081	1.206	1.049	1.331	1.809	2.241	1.681	1.392	1.138	1.248	1.218	1.276	1.304	1.587	1.693	1.462	1.503	1.504	1.715	2.866	4.454	15.16	80.71	303.0	672.6	1989	1821
600.0	172.9	158.0	118.5	49.92	24.62	23.09	29.26	40.61	58.17	85.09	152.4	102.8	72.21	93.70	623.5	9435	9999.9	123.1	18.07	12.71	9.557	7.978	6.510	5.569	5.225	4.406	3.904	3.681	3.524	3.440	3.287	2.948	2.909	2.581	2.826	3.225	3.708	2.562	2.326	2.121	2.062	2.055	1.826	1.891	1.915	1.925	1.959	1.821	1.407	1.332	1.040	1.077	1.021	1.079	1.421	1.992	2.007	1.409	1.144	1.128	1.109	1.098	1.168	1.328	1.494	1.532	1.489	1.266	1.290	1.608	1.786	4.411	19.10	68.86	152.7	695.6	2218
605.0	151.7	153.5	114.9	47.99	24.74	25.45	32.99	43.61	58.36	83.75	139.1	124.3	72.95	63.80	174.3	3370	9999.9	990.4	20.96	12.61	10.04	7.650	6.763	5.913	4.884	4.359	4.065	3.779	3.350	3.557	2.981	3.235	2.803	2.459	2.681	2.761	3.627	2.628	2.138	2.131	1.886	2.010	1.677	2.016	1.765	1.886	1.901	1.816	1.462	1.254	1.102	1.056	0.961	0.865	1.188	1.522	1.820	1.609	1.154	1.111	0.997	1.083	1.022	1.239	1.361	1.376	1.625	1.284	1.135	1.239	1.258	1.957	5.139	16.45	35.31	160.9	905.6
610.0	152.3	152.5	102.5	46.74	26.25	26.57	39.79	52.73	68.29	89.86	122.4	151.2	87.87	57.06	73.83	820.9	8859	9250	248.6	14.64	10.48	8.261	6.997	5.865	5.232	4.249	4.281	3.726	3.573	3.611	3.335	3.019	2.935	2.857	2.641	2.518	2.980	3.631	2.265	1.990	1.910	1.822	1.782	1.822	1.798	1.927	1.837	1.685	1.421	1.235	1.015	1.023	0.951	0.901	1.015	1.146	1.506	1.662	1.410	1.154	1.007	1.066	1.024	1.242	1.152	1.236	1.420	1.295	1.189	1.080	1.016	1.177	1.865	4.559	8.999	36.95	209.6
615.0	149.7	139.7	99.35	43.59	26.99	26.75	40.08	58.86	81.81	98.26	119.0	150.8	113.7	63.40	51.42	216.4	2359	9999.9	2831	19.95	11.82	9.204	7.142	5.766	5.084	4.785	3.982	3.472	3.604	3.450	3.016	3.153	2.650	2.720	2.430	2.511	2.466	2.995	3.218	2.048	1.866	1.627	1.794	1.983	1.776	1.828	1.736	1.589	1.331	1.233	1.058	0.981	0.911	0.860	0.852	0.963	1.162	1.509	1.609	1.283	1.120	1.146	1.066	1.154	0.980	1.089	1.069	1.255	1.297	1.028	0.905	0.803	0.995	1.673	2.765	9.031	47.69
620.0	138.2	137.0	94.51	43.57	27.72	31.07	41.72	59.07	88.27	101.1	119.5	138.2	127.7	66.54	47.21	79.28	571.6	8069	7566	79.86	13.97	9.691	7.352	6.086	5.511	4.519	4.093	3.863	3.486	3.258	2.904	3.157	2.794	2.812	2.430	2.674	2.208	2.414	3.928	2.773	1.769	1.620	1.737	1.719	1.865	1.548	1.589	1.676	1.323	1.119	0.935	0.844	0.935	0.877	0.901	0.933	0.929	1.246	1.375	1.496	1.236	1.029	1.133	1.098	0.891	0.950	1.102	1.064	1.262	1.038	0.923	0.774	0.763	0.975	1.226	2.717	11.37
625.0	142.7	118.4	87.26	40.73	28.04	31.65	41.80	58.82	82.71	104.7	119.6	126.0	132.9	72.57	45.78	48.26	160.0	3041	9999.9	681.1	15.50	10.56	7.244	6.394	5.384	4.431	4.250	3.721	3.129	3.167	3.089	2.995	2.620	2.671	2.401	2.515	2.320	2.191	3.198	3.927	1.717	1.680	1.638	1.507	1.568	1.461	1.514	1.548	1.238	1.018	0.927	1.024	0.830	0.901	0.826	1.007	0.940	1.116	1.227	1.363	1.261	1.104	1.005	1.088	0.988	0.998	1.124	0.961	1.184	0.992	0.925	0.769	0.779	0.719	0.788	1.172	3.258
630.0	124.9	118.6	79.84	43.49	29.45	30.70	41.25	58.50	78.65	100.7	115.3	112.8	118.4	87.20	46.40	40.60	63.43	747.0	7855	5577	62.71	12.00	8.071	6.883	5.916	4.593	4.466	3.659	3.350	3.198	2.956	3.034	2.703	2.460	2.472	2.272	2.450	2.164	2.299	3.230	2.874	1.742	1.552	1.506	1.526	1.546	1.554	1.527	1.299	1.042	0.905	0.927	0.834	0.798	0.800	0.882	0.887	0.930	1.140	1.243	1.184	1.085	0.904	0.965	1.086	1.022	0.902	0.894	0.887	0.808	0.930	0.740	0.675	0.692	0.606	0.801	1.241
635.0	110.7	105.3	71.09	43.07	23.59	27.57	37.41	56.56	69.21	91.96	105.6	104.2	94.04	92.46	49.79	36.46	40.72	190.3	2170	9999.9	795.4	14.85	9.271	7.203	6.154	4.569	4.545	3.812	3.337	3.498	2.808	2.511	2.679	2.458	2.276	2.348	2.277	2.001	2.073	2.216	3.177	2.567	1.550	1.450	1.425	1.642	1.362	1.530	1.271	1.012	0.888	0.995	0.692	0.902	0.874	0.845	0.903	0.948	0.938	1.048	1.090	1.088	1.077	0.939	0.981	0.944	0.811	0.789	0.816	0.828	0.838	0.848	0.641	0.564	0.587	0.545	0.739
640.0	106.3	96.49	75.04	40.39	27.54	26.83	35.66	50.60	70.46	85.21	99.30	98.25	82.01	88.94	53.95	33.45	33.29	64.23	521.9	7467	5117	47.15	10.32	7.617	6.043	4.712	3.933	3.815	3.324	3.215	2.919	2.631	2.551	2.479	2.387	2.285	2.248	2.194	1.841	1.749	2.562	3.475	1.615	1.501	1.376	1.524	1.279	1.372	1.194	1.041	0.986	0.948	0.731	0.750	0.901	0.984	0.823	1.023	0.794	0.903	1.000	1.005	1.040	0.944	0.880	0.747	0.777	0.858	0.707	0.707	0.678	0.706	0.668	0.509	0.515	0.511	0.580
645.0	98.55	104.4	76.31	42.06	28.53	28.31	33.20	50.37	66.82	81.97	92.71	94.43	78.49	78.96	64.09	33.46	29.45	35.19	135.4	3038	8970	432.3	11.80	8.253	6.342	4.914	4.152	3.727	3.333	3.394	3.294	2.516	2.476	2.207	2.342	2.219	2.310	2.032	1.781	1.828	1.889	3.511	2.394	1.580	1.334	1.420	1.228	1.368	1.133	1.025	1.016	0.813	0.830	0.781	0.821	0.865	0.699	0.889	0.870	0.961	0.873	1.114	0.969	0.925	0.812	0.763	0.746	0.829	0.743	0.574	0.650	0.662	0.678	0.609	0.482	0.448	0.498
650.0	115.4	110.0	86.46	53.91	35.56	27.49	35.27	48.39	66.08	79.68	92.77	91.29	74.79	67.57	69.99	37.09	30.63	27.46	47.33	807.9	8710	2430	16.49	8.368	6.394	5.329	4.440	4.029	3.832	3.136	2.951	2.689	2.378	2.225	2.405	2.105	2.202	2.007	1.848	1.619	1.658	2.372	3.560	1.734	1.401	1.395	1.328	1.419	1.145	0.878	1.002	0.780	0.799	0.688	0.811	0.827	0.883	0.887	0.942	0.879	0.840	1.046	0.906	1.030	0.889	0.696	0.705	0.805	0.732	0.658	0.622	0.555	0.590	0.644	0.613	0.387	0.451
