Sample:	'1
File name:	t2025062314淦清河入孝妇河 10倍.FD3
Run date:	'15:53:09, 06/24/2025
Operator:	Administrator
Comment:	'

Instrument
Model:	F-2700 FL Spectrophotometer
Serial number:	23B8-004
ROM Version:	4J14000 07

Instrument parameters
Measurement type:	3-D scan
Data mode:	Fluorescence
EX  Start WL:	220.0 nm
EX  End WL:	600.0 nm
EX Sampling interval:	5.0 nm
EM  Start WL:	230.0 nm
EM  End WL:	650.0 nm
EM Sampling interval:	5.0 nm
Scan speed:	12000 nm/min
EX Slit:	5.0 nm
EM Slit:	5.0 nm
PMT Voltage:	700 V
Response:	Auto 
Corrected spectra:	Off
Contour interval:	50.000

Peak integration
Integration method:	Rectangular
Sensitivity:	1
Threshold:	1.000

Peaks
No.	ApexEX/EM(nm)	Height(Data)
1	230.0/340.0	5099
2	230.0/500.0	405.8
3	235.0/260.0	350.7
4	240.0/265.0	444.4
5	240.0/525.0	299.7
6	245.0/270.0	488.1
7	245.0/535.0	247.0
8	250.0/275.0	631.9
9	250.0/455.0	1193
10	250.0/550.0	188.8
11	255.0/285.0	623.8
12	255.0/565.0	140.3
13	260.0/290.0	546.9
14	260.0/575.0	108.5
15	265.0/585.0	88.17
16	275.0/320.0	3333
17	275.0/615.0	201.8
18	280.0/625.0	177.8
19	285.0/640.0	149.0
20	330.0/375.0	311.1
21	335.0/380.0	280.2
22	340.0/390.0	225.2
23	345.0/395.0	213.7
24	350.0/400.0	212.9
25	360.0/415.0	180.5
26	365.0/420.0	179.5
27	370.0/430.0	160.5
28	425.0/500.0	25.80
29	440.0/520.0	15.44
30	455.0/540.0	8.658
31	470.0/560.0	4.393
32	475.0/340.0	16.62
33	485.0/265.0	2.242
34	495.0/270.0	2.442
35	505.0/275.0	3.493
36	505.0/450.0	5.178
37	510.0/280.0	4.121
38	510.0/455.0	5.194
39	515.0/285.0	3.726
40	570.0/315.0	16.10
41	575.0/290.0	56.80
42	580.0/320.0	16.07
43	585.0/325.0	15.48

Data points
	220.0	225.0	230.0	235.0	240.0	245.0	250.0	255.0	260.0	265.0	270.0	275.0	280.0	285.0	290.0	295.0	300.0	305.0	310.0	315.0	320.0	325.0	330.0	335.0	340.0	345.0	350.0	355.0	360.0	365.0	370.0	375.0	380.0	385.0	390.0	395.0	400.0	405.0	410.0	415.0	420.0	425.0	430.0	435.0	440.0	445.0	450.0	455.0	460.0	465.0	470.0	475.0	480.0	485.0	490.0	495.0	500.0	505.0	510.0	515.0	520.0	525.0	530.0	535.0	540.0	545.0	550.0	555.0	560.0	565.0	570.0	575.0	580.0	585.0	590.0	595.0	600.0
230.0	103.8	1310	2265	509.6	20.04	7.150	6.009	5.547	3.933	3.635	3.908	3.855	3.645	2.922	2.224	1.889	1.667	1.855	1.487	1.150	0.979	1.131	0.803	0.823	0.856	0.768	0.737	0.598	0.666	0.600	0.611	0.635	0.573	0.514	0.540	0.505	0.510	0.463	0.481	0.492	0.534	0.691	0.612	0.434	0.399	0.478	1.658	5.273	7.018	4.243	1.388	0.445	0.367	0.315	0.310	0.330	0.320	0.291	0.310	0.292	0.305	0.299	0.310	0.292	0.309	0.323	0.291	0.297	0.323	0.315	0.336	0.319	0.288	0.301	0.293	0.331	0.289
235.0	141.7	392.9	1717	2264	471.1	26.39	7.008	6.385	4.746	4.088	3.829	4.107	4.763	3.176	2.286	2.099	1.746	1.928	1.409	1.108	1.032	1.230	0.962	0.802	0.850	0.707	0.705	0.639	0.692	0.677	0.544	0.667	0.487	0.568	0.512	0.486	0.467	0.463	0.491	0.495	0.466	0.497	0.680	0.653	0.645	0.420	0.717	1.591	3.122	5.471	6.936	6.271	4.014	0.625	0.409	0.301	0.328	0.294	0.269	0.283	0.342	0.280	0.285	0.319	0.290	0.342	0.323	0.298	0.329	0.312	0.300	0.277	0.289	0.298	0.309	0.276	0.290
240.0	220.3	179.0	582.1	2290	2277	339.4	14.64	7.481	5.324	4.457	4.219	4.322	4.089	3.356	2.352	2.076	2.172	1.828	1.616	0.906	1.046	1.169	0.966	0.847	0.766	0.890	0.664	0.762	0.731	0.639	0.729	0.682	0.494	0.557	0.574	0.501	0.482	0.422	0.443	0.469	0.451	0.429	0.473	0.675	0.914	0.711	0.614	0.625	0.951	1.946	4.607	9.289	17.57	6.376	2.370	0.465	0.348	0.296	0.268	0.251	0.276	0.307	0.297	0.332	0.313	0.379	0.286	0.335	0.320	0.346	0.375	0.265	0.295	0.316	0.352	0.348	0.309
245.0	209.7	244.9	195.9	899.2	2951	1937	229.8	8.667	6.062	4.565	5.401	4.540	4.578	3.163	2.395	2.235	1.923	1.900	1.548	1.075	1.090	1.088	0.889	0.945	0.647	0.928	0.796	0.769	0.728	0.800	0.704	0.610	0.600	0.509	0.620	0.630	0.510	0.473	0.479	0.556	0.460	0.398	0.468	0.451	0.614	0.957	0.980	0.753	0.540	0.724	1.371	3.734	14.76	12.93	13.20	6.243	1.486	0.400	0.314	0.295	0.269	0.330	0.299	0.292	0.321	0.365	0.317	0.319	0.305	0.307	0.320	0.346	0.257	0.335	0.332	0.369	0.361
250.0	92.99	212.7	279.2	283.7	1079	2432	2548	831.4	33.97	7.203	6.464	4.392	5.075	3.405	2.730	2.423	2.111	2.200	1.576	1.168	1.152	1.170	0.973	0.964	0.851	0.817	0.748	0.686	0.842	0.701	0.661	0.627	0.608	0.552	0.473	0.542	0.460	0.455	0.478	0.556	0.496	0.416	0.439	0.405	0.449	0.612	0.765	0.972	1.099	0.880	0.662	1.190	3.848	4.710	9.566	15.15	15.01	11.14	7.358	1.300	0.386	0.393	0.312	0.300	0.315	0.384	0.320	0.327	0.338	0.355	0.331	0.312	0.328	0.340	0.311	0.317	0.305
255.0	51.18	75.10	246.6	345.7	323.0	689.6	2535	5112	293.8	29.53	8.103	5.689	6.098	3.922	3.089	2.686	2.337	2.304	1.937	1.182	1.191	1.446	0.946	0.892	0.871	0.819	0.820	0.734	0.788	0.751	0.678	0.651	0.669	0.581	0.539	0.581	0.511	0.515	0.547	0.459	0.458	0.429	0.400	0.403	0.530	0.433	0.475	0.520	0.701	1.148	1.346	1.249	1.403	1.350	2.582	4.045	6.910	14.74	29.55	20.04	8.111	1.407	0.425	0.294	0.314	0.307	0.305	0.472	0.390	0.298	0.394	0.319	0.325	0.330	0.294	0.419	0.297
260.0	38.18	40.67	106.9	350.7	316.8	225.1	874.9	5458	2371	238.3	17.62	7.242	6.765	4.358	3.150	2.798	2.431	2.682	1.986	1.475	1.180	1.309	0.884	0.916	0.820	0.987	0.803	0.886	0.892	0.769	0.699	0.768	0.726	0.725	0.551	0.570	0.510	0.465	0.539	0.579	0.514	0.412	0.373	0.383	0.499	0.407	0.416	0.457	0.435	0.591	1.141	1.820	1.977	1.074	1.034	1.308	2.067	4.548	15.38	24.64	30.53	18.31	6.099	0.924	0.399	0.315	0.327	0.366	0.390	0.282	0.304	0.352	0.351	0.281	0.315	0.419	0.324
265.0	42.76	29.55	48.29	198.6	444.4	248.8	269.3	2133	5016	2042	181.9	10.41	9.486	5.326	4.001	2.787	2.697	2.900	2.061	1.546	1.277	1.432	1.104	0.987	0.901	0.904	0.950	0.862	0.818	0.906	0.735	0.682	0.661	0.782	0.576	0.547	0.545	0.548	0.506	0.555	0.502	0.422	0.488	0.443	0.449	0.462	0.399	0.404	0.355	0.437	0.575	1.240	2.128	2.242	1.540	0.998	1.045	1.563	4.065	8.169	20.73	33.36	30.35	18.29	3.874	0.460	0.353	0.342	0.323	0.329	0.399	0.320	0.354	0.299	0.271	0.359	0.395
270.0	45.25	36.68	38.97	88.60	296.6	488.1	318.4	572.6	1847	4419	5515	722.6	53.78	6.891	5.212	3.589	3.265	3.562	2.501	1.632	1.479	1.486	1.106	1.026	1.029	1.066	0.957	0.874	0.938	0.842	0.761	0.764	0.720	0.726	0.646	0.557	0.566	0.491	0.545	0.543	0.480	0.475	0.473	0.417	0.474	0.447	0.430	0.426	0.363	0.402	0.444	0.638	1.091	1.611	2.393	2.442	2.060	1.398	1.480	2.357	5.335	10.63	20.59	38.27	35.64	20.18	11.37	2.565	0.572	0.431	0.345	0.441	0.351	0.343	0.368	0.373	0.383
275.0	58.14	53.67	50.15	67.61	160.6	348.0	631.9	378.1	470.3	1187	6203	8708	1187	31.44	7.392	4.664	4.431	4.533	2.980	2.049	1.548	1.835	1.325	1.113	1.289	0.967	0.994	0.850	0.971	0.905	0.862	0.784	0.919	0.774	0.831	0.563	0.571	0.571	0.637	0.630	0.503	0.495	0.547	0.430	0.437	0.461	0.509	0.471	0.388	0.449	0.433	0.563	0.805	0.968	1.390	1.990	2.968	3.493	2.417	1.364	1.639	2.866	5.150	9.360	12.75	23.12	44.10	30.44	20.49	2.554	0.427	0.509	0.424	0.306	0.348	0.359	0.404
280.0	85.25	80.93	66.23	67.17	126.1	227.8	513.1	611.9	235.0	320.3	1941	8241	9931	146.5	13.91	6.163	4.719	5.085	3.653	2.238	1.779	1.763	1.297	1.282	1.364	1.090	0.953	0.870	1.021	0.975	0.802	0.857	0.821	0.813	0.799	0.687	0.680	0.720	0.604	0.677	0.578	0.525	0.484	0.544	0.501	0.573	0.525	0.537	0.574	0.470	0.531	0.556	0.718	0.855	1.006	1.223	1.799	2.884	4.121	2.894	1.533	1.197	1.649	2.578	3.362	6.278	17.53	32.96	90.81	28.48	11.40	1.737	0.390	0.453	0.399	0.377	0.429
285.0	116.6	103.5	81.05	79.07	113.5	174.3	284.6	623.8	336.2	160.7	509.6	2761	9999.9	5389	104.4	8.988	5.832	6.288	4.367	2.888	2.280	1.918	1.560	1.323	1.334	1.170	0.991	0.970	1.214	0.915	0.936	0.804	0.735	1.000	0.879	0.855	0.730	0.606	0.660	0.702	0.587	0.566	0.600	0.558	0.634	0.670	0.656	0.665	0.643	0.510	0.505	0.559	0.706	0.779	0.844	0.989	1.151	1.613	2.485	3.726	3.660	1.792	1.036	1.064	1.367	1.969	4.601	9.511	45.34	45.00	53.97	27.09	6.565	0.831	0.430	0.404	0.536
290.0	174.5	156.0	117.7	90.47	103.8	140.3	170.2	297.5	546.9	450.4	253.5	723.3	3498	6244	5442	428.0	26.51	9.727	5.200	3.077	2.712	2.632	1.640	1.433	1.437	1.364	1.168	0.904	1.185	1.028	0.895	0.909	0.949	1.050	0.957	0.850	0.934	0.786	0.714	0.826	0.624	0.684	0.672	0.657	0.738	0.772	0.744	0.752	0.711	0.595	0.508	0.604	0.767	0.723	0.871	0.834	0.953	1.020	1.188	1.752	2.547	3.181	3.302	2.472	1.476	1.132	1.714	2.853	10.96	12.54	24.46	56.80	34.04	42.52	15.95	6.686	0.925
295.0	248.3	243.7	196.6	138.2	123.9	140.3	159.7	201.2	312.5	704.8	609.6	342.5	924.3	1594	4268	6456	619.6	38.62	9.150	4.074	3.228	3.390	2.053	1.586	1.694	1.547	1.247	1.077	1.189	1.221	1.001	0.984	1.068	1.024	1.011	0.995	0.862	0.842	0.804	0.969	0.774	0.748	0.758	0.724	0.917	1.015	0.992	0.954	1.128	0.743	0.696	0.691	0.791	0.777	0.893	0.856	1.037	1.005	1.115	1.268	1.429	1.687	2.632	4.456	4.563	2.704	1.843	1.824	3.641	3.775	6.269	13.69	10.04	23.55	43.39	57.97	27.60
300.0	456.3	476.8	402.4	282.5	240.8	252.8	307.4	330.9	352.1	782.4	1253	860.6	738.6	761.9	1475	6198	5597	542.5	26.16	6.401	4.336	4.147	2.524	1.883	1.914	1.598	1.356	1.461	1.164	1.225	0.990	1.007	1.052	1.053	1.115	1.272	1.093	0.995	0.995	1.107	0.981	0.907	0.995	1.136	1.155	1.576	1.437	1.413	1.496	1.121	1.073	1.287	1.084	1.211	1.201	1.304	1.545	1.607	1.951	2.047	2.123	2.282	2.851	4.175	5.688	6.881	5.258	3.812	4.085	3.657	4.022	5.404	4.247	7.695	15.20	35.06	63.22
305.0	811.3	913.3	817.1	591.1	477.0	502.8	698.0	891.4	1143	1576	1984	1726	1423	1204	1213	2609	7967	5343	82.12	12.38	6.006	5.810	2.858	2.241	2.415	1.932	1.635	1.514	1.520	1.418	0.959	1.183	1.093	1.267	1.251	1.597	1.649	1.560	1.708	1.767	1.610	1.532	1.622	1.753	1.886	2.270	2.473	2.535	2.690	2.010	1.923	2.205	2.078	2.172	2.147	2.533	2.873	3.334	4.254	4.570	4.798	5.555	6.710	7.339	8.623	10.03	11.64	11.41	10.04	8.362	7.624	7.326	6.777	8.112	8.889	12.91	25.99
310.0	1262	1517	1369	990.9	790.1	841.5	1104	1372	1688	2191	2626	3025	2910	2148	1796	1702	3406	9388	6710	310.2	21.38	7.779	3.748	2.877	3.000	2.314	1.988	1.557	1.674	1.397	1.224	1.192	1.302	1.635	1.501	1.683	1.831	1.871	2.039	2.097	2.050	2.050	2.199	2.351	2.808	3.396	3.757	4.362	4.353	3.318	3.058	3.504	3.261	3.181	3.144	3.828	4.398	5.061	5.927	6.297	6.869	8.096	9.276	10.15	11.01	12.54	13.26	14.53	15.87	14.61	12.54	11.20	10.14	10.35	9.420	9.494	11.73
315.0	1715	2097	1959	1421	1091	1084	1364	1608	1901	2386	2872	3251	3301	2944	2214	1657	1936	2793	4748	6618	479.5	27.08	5.958	3.716	3.447	2.449	2.148	2.128	1.770	1.740	1.433	1.324	1.299	1.638	1.617	1.696	1.958	2.076	2.349	2.392	2.573	2.537	2.614	2.901	3.530	4.481	5.008	5.784	5.709	4.738	4.251	4.921	4.462	4.150	4.225	4.627	5.286	6.122	7.184	7.253	8.040	8.945	10.29	11.27	12.30	13.08	14.13	14.56	15.48	15.65	16.10	15.32	13.73	12.54	10.64	9.490	9.505
320.0	2030	2479	2326	1661	1272	1216	1465	1712	1924	2426	2936	3333	3305	3159	2593	1725	1653	1269	1353	5189	4190	432.9	11.30	4.775	4.423	3.184	2.502	2.192	2.195	1.717	1.405	1.360	1.504	1.729	1.676	1.726	1.913	2.264	2.420	2.598	2.663	2.806	2.889	3.228	4.356	5.126	5.983	6.970	6.615	5.501	4.923	5.497	4.913	4.726	4.706	4.959	5.818	6.855	7.583	7.719	7.835	8.908	9.968	11.81	12.84	13.35	14.16	15.28	15.99	15.40	15.28	16.00	16.07	14.38	11.42	10.01	9.400
325.0	2177	2816	2693	1927	1370	1232	1445	1678	1827	2249	2736	3148	3130	2895	2689	1803	1509	907.6	477.7	1549	4804	4017	58.40	7.423	5.640	3.876	2.513	2.529	2.170	1.870	1.437	1.545	1.447	1.684	1.756	1.846	1.882	2.210	2.380	2.474	2.940	2.849	3.060	3.378	4.554	5.667	6.139	7.633	7.677	6.283	5.812	6.174	5.621	4.972	4.938	5.173	5.740	6.745	7.281	7.683	7.539	8.310	9.541	11.15	11.56	12.84	12.84	14.55	14.70	15.06	14.66	14.75	15.22	15.48	12.97	10.50	9.052
330.0	2500	3442	3613	2915	2100	1473	1431	1571	1652	2009	2461	2849	2898	2656	2393	1928	1530	847.8	361.3	486.3	1457	5866	4080	975.8	22.11	5.295	3.475	2.682	2.672	2.100	1.787	1.627	1.584	1.841	1.849	1.772	1.933	2.194	2.289	2.532	2.763	2.997	3.501	3.842	4.996	6.318	7.478	9.462	10.04	8.802	8.535	9.583	8.528	7.208	5.999	5.437	5.801	6.501	6.994	7.027	7.016	7.448	8.447	9.660	10.29	11.37	12.26	12.91	13.49	13.99	13.47	13.18	13.01	13.49	12.43	11.40	10.30
335.0	2865	4200	4845	4553	3548	2105	1550	1576	1579	1865	2282	2682	2795	2644	2337	1886	1757	1042	483.7	372.1	522.8	1523	2797	4893	435.4	22.99	4.822	3.665	3.100	2.582	1.915	1.872	1.631	1.927	1.878	1.826	1.998	2.207	2.508	2.829	2.739	3.205	3.807	4.448	5.685	7.567	9.184	11.69	12.72	12.40	12.44	14.68	13.96	12.07	9.053	6.952	6.587	6.584	7.326	7.080	7.039	6.882	7.732	9.052	9.715	10.63	11.30	12.35	12.91	13.74	13.47	13.17	13.42	13.00	11.93	11.17	10.89
340.0	3006	4429	5099	4954	3923	2281	1551	1471	1450	1691	2054	2433	2554	2460	2171	1738	1604	1167	558.6	361.9	332.8	506.0	854.6	3493	6913	361.4	9.881	4.519	3.805	2.854	2.115	2.115	1.860	1.945	1.750	1.762	1.892	2.161	2.397	2.573	2.929	3.122	3.558	4.398	6.213	8.214	9.453	12.35	13.61	13.18	13.70	16.62	14.91	13.57	9.886	7.253	6.451	6.562	6.674	6.702	6.589	6.526	6.995	8.036	8.602	9.631	10.43	11.05	11.73	12.15	12.63	12.50	12.52	12.44	11.10	10.17	10.19
345.0	2833	4151	4867	4788	3749	2163	1411	1302	1278	1483	1794	2095	2239	2159	1922	1529	1329	1087	646.2	367.3	283.5	278.5	330.3	1061	6759	3339	52.01	6.649	4.295	3.270	2.176	2.116	1.778	2.130	1.792	1.851	1.774	2.020	2.246	2.607	2.580	3.003	3.684	4.378	5.732	7.437	8.871	11.43	12.42	12.78	13.30	15.66	14.62	12.61	9.201	6.783	6.042	5.675	5.758	5.908	5.562	5.688	6.355	7.212	7.439	8.179	9.369	9.564	10.69	10.58	11.24	10.88	10.87	10.64	10.04	9.378	8.657
350.0	2534	3824	4591	4641	3723	2127	1286	1154	1114	1260	1520	1779	1908	1857	1680	1360	1155	892.4	686.3	475.7	301.0	242.5	229.4	342.1	1953	3563	3532	1047	17.31	4.611	2.550	2.239	1.848	2.234	1.815	1.763	1.712	1.917	2.009	2.428	2.464	2.774	3.213	3.849	5.239	6.752	8.194	10.39	11.69	12.06	12.90	15.57	14.33	12.61	9.362	6.726	5.837	5.143	5.388	5.425	5.222	5.036	5.507	6.223	6.623	6.993	7.816	8.099	8.704	9.050	9.386	9.705	9.486	9.416	8.787	8.337	7.609
355.0	2270	3419	4059	4236	3552	2017	1172	1018	963.7	1068	1288	1500	1598	1581	1453	1194	1008	767.9	567.1	536.7	386.6	248.3	216.3	191.7	486.9	851.8	2298	5141	399.0	18.38	3.681	2.671	2.067	2.613	1.818	1.648	1.643	1.780	1.983	2.104	2.205	2.471	3.051	3.517	4.791	5.979	7.065	9.200	10.82	10.75	11.97	14.30	13.61	12.33	8.930	5.867	5.210	4.666	4.614	4.643	4.432	4.462	4.796	5.427	5.621	5.864	6.482	7.004	7.502	7.722	7.804	8.048	8.458	8.444	7.375	7.136	6.887
360.0	1956	2858	3534	3677	3052	1770	1031	894.8	840.5	923.2	1093	1257	1346	1345	1227	1023	873.5	667.8	483.5	446.2	442.7	276.3	203.4	151.8	167.5	223.5	602.9	3610	5533	333.1	7.672	3.711	2.604	2.517	1.876	1.848	1.643	1.772	1.767	2.040	2.159	2.175	2.792	3.039	4.128	5.342	6.282	8.151	9.278	9.476	10.46	12.00	11.83	10.85	8.129	5.542	4.888	3.997	4.092	4.131	4.138	3.903	4.283	4.391	4.824	4.770	5.643	5.995	6.320	6.536	6.518	6.853	6.800	6.924	6.378	6.242	5.874
365.0	1680	2438	3050	3213	2653	1554	900.0	772.9	740.8	810.1	940.5	1072	1138	1138	1054	892.7	757.2	592.4	431.8	367.2	404.5	346.3	212.0	143.3	102.5	89.72	160.6	1036	5191	3155	47.49	5.644	3.302	3.049	2.146	1.965	1.551	1.707	1.837	1.787	2.033	2.009	2.537	2.879	3.523	4.443	5.642	6.986	7.997	7.970	8.766	10.64	10.34	9.470	6.993	4.950	4.162	3.768	3.711	3.640	3.552	3.542	3.914	3.901	4.244	4.587	4.974	4.930	5.132	5.856	5.747	5.923	5.984	5.626	5.479	5.256	5.314
370.0	1407	2066	2536	2698	2265	1366	798.4	682.8	651.0	697.3	802.5	897.8	948.8	949.8	884.1	760.9	658.4	530.2	402.7	334.4	315.8	343.4	288.0	162.2	98.37	70.50	71.02	256.3	1452	3774	3396	934.3	14.56	4.147	2.572	2.108	1.555	1.680	1.728	1.756	1.767	1.911	2.271	2.587	3.067	3.732	4.558	6.048	6.697	6.729	7.233	9.254	8.901	8.168	6.126	4.367	3.668	3.393	3.293	3.164	3.055	3.177	3.276	3.254	3.567	3.903	4.178	4.406	4.534	4.887	4.943	5.026	5.241	4.756	4.955	4.842	4.502
375.0	1175	1696	2028	2177	1876	1173	706.2	606.2	564.5	606.7	672.9	747.9	803.3	785.3	734.0	644.1	567.3	471.1	371.6	314.6	277.0	267.6	311.1	238.9	116.4	78.70	61.81	91.31	349.1	899.2	2337	4629	334.5	19.27	3.369	2.294	1.775	1.727	1.682	1.699	1.627	1.815	2.000	2.284	2.613	3.406	3.989	4.868	5.479	5.853	6.206	7.502	7.086	6.712	5.351	3.813	3.249	2.940	2.812	2.734	2.670	2.898	3.045	3.081	3.120	3.351	3.516	3.640	3.895	4.130	4.186	4.356	4.261	4.319	4.321	4.000	3.772
380.0	1019	1420	1721	1846	1597	1035	646.1	560.1	521.2	541.2	598.6	653.6	687.6	679.6	634.9	563.1	502.0	423.5	353.7	299.1	261.4	242.1	259.2	280.2	164.4	92.04	68.98	61.83	110.0	224.8	623.0	3427	2830	301.4	6.677	2.748	1.881	1.757	1.878	1.965	1.580	1.578	1.822	1.990	2.275	3.199	3.480	4.162	4.911	4.845	5.132	6.391	6.250	5.932	4.739	3.545	2.823	2.547	2.615	2.540	2.460	2.506	2.696	2.696	2.747	3.081	3.177	3.341	3.301	3.545	3.664	3.716	3.770	4.054	3.746	3.423	3.214
385.0	891.0	1244	1496	1583	1406	935.6	616.6	512.1	487.1	500.4	542.5	594.9	619.2	602.5	564.5	505.4	453.6	390.1	333.1	287.2	256.6	234.4	225.2	252.1	225.0	119.1	79.99	63.70	63.58	79.89	162.1	997.9	3704	4750	38.85	3.912	2.261	2.061	1.770	1.981	1.509	1.576	1.686	1.961	2.132	2.744	3.095	3.591	4.142	4.019	4.353	5.503	5.487	5.126	4.069	3.286	2.869	2.628	2.571	2.417	2.135	2.328	2.348	2.435	2.695	2.772	2.918	3.084	3.311	3.035	3.174	3.714	3.387	3.630	3.311	3.316	2.989
390.0	802.8	1038	1259	1324	1217	853.7	595.5	496.8	457.4	462.7	496.3	525.1	542.4	534.0	503.3	450.5	407.2	361.6	314.0	279.4	252.7	233.7	217.2	207.7	225.2	191.4	112.5	79.04	64.90	59.09	65.53	244.7	1093	4293	2993	709.4	11.05	2.642	2.084	2.126	1.661	1.440	1.508	1.714	2.088	2.403	2.606	3.249	3.415	3.585	3.721	4.802	4.716	4.492	3.832	3.078	2.827	2.558	2.399	2.453	2.140	2.502	2.158	2.432	2.395	2.463	2.654	2.802	2.868	2.728	3.007	3.021	3.053	3.100	3.007	2.877	3.065
395.0	689.0	908.7	1054	1142	1073	798.4	582.4	492.9	445.9	432.4	464.7	483.4	493.6	481.1	453.3	408.4	375.7	338.4	299.5	274.5	254.2	232.2	217.5	197.2	186.9	213.7	178.7	106.6	79.43	66.38	54.62	82.35	262.5	1010	2293	3394	267.6	10.74	2.729	2.506	1.831	1.457	1.467	1.588	1.990	2.270	2.277	2.778	3.020	3.082	3.164	4.119	4.090	3.971	3.355	2.832	2.686	2.433	2.387	2.503	2.460	2.143	2.284	2.202	2.216	2.319	2.429	2.616	2.526	2.637	2.602	2.835	2.983	2.752	2.658	2.582	2.969
400.0	640.6	827.8	945.5	1023	974.5	752.7	580.9	497.9	434.4	422.8	440.6	465.4	464.7	448.0	423.1	384.1	354.2	323.5	288.4	269.3	251.8	235.1	225.1	201.4	179.3	188.0	212.9	147.3	93.98	75.58	57.97	52.02	80.73	242.8	627.8	2566	2121	216.2	5.146	3.022	1.968	1.472	1.484	1.631	1.840	2.099	2.232	2.456	2.705	2.722	2.975	3.870	3.803	3.598	3.052	2.940	2.734	2.554	2.448	2.393	2.287	2.226	2.290	2.264	2.378	2.374	2.448	2.420	2.466	2.496	2.548	2.727	2.689	2.458	2.539	2.465	2.628
405.0	615.6	749.6	866.4	933.2	907.4	732.6	600.7	499.0	434.7	413.3	429.9	446.3	446.2	430.8	399.8	364.9	334.1	305.8	281.5	263.4	246.3	235.3	223.7	204.9	182.6	175.8	197.3	196.0	121.3	86.86	67.17	51.10	46.07	73.45	155.2	765.2	2115	2013	34.17	4.195	2.403	1.626	1.434	1.631	1.889	2.150	2.039	2.435	2.784	2.584	2.711	3.359	3.792	3.474	3.191	2.909	2.703	2.443	2.605	2.267	2.215	2.116	2.201	2.048	2.191	2.267	2.372	2.358	2.243	2.506	2.428	2.575	2.540	2.432	2.430	2.490	2.495
410.0	573.8	687.2	785.4	853.9	841.0	723.8	606.6	522.5	437.9	408.7	420.6	424.2	423.4	408.2	376.8	343.4	315.8	294.0	271.8	254.5	242.5	231.5	221.3	204.6	191.2	175.9	171.9	190.5	170.1	113.3	79.58	59.30	45.06	41.42	52.64	184.2	620.0	1961	2356	767.7	10.35	2.075	1.670	1.664	1.903	2.027	2.085	2.341	2.456	2.425	2.481	3.294	3.368	3.259	2.980	2.828	2.713	2.690	2.628	2.334	2.302	2.134	2.061	2.161	2.066	2.186	2.239	2.198	2.224	2.275	2.324	2.404	2.514	2.412	2.268	2.368	2.393
415.0	526.5	652.6	751.4	792.9	809.0	734.0	639.5	542.8	443.4	404.6	406.3	404.4	405.0	388.2	360.0	326.6	304.1	283.4	267.2	251.8	234.4	224.5	218.5	207.8	193.8	181.5	167.3	163.4	180.5	159.4	98.93	70.61	52.57	40.82	34.96	57.48	149.8	468.2	1756	4028	247.8	7.620	2.201	1.868	2.124	1.902	2.127	2.287	2.144	2.275	2.260	3.040	3.209	3.339	2.886	2.991	2.933	2.707	2.693	2.348	2.509	2.241	2.143	2.227	2.132	2.172	2.039	2.200	2.080	2.259	2.229	2.352	2.248	2.161	2.250	2.386	2.197
420.0	516.9	637.5	722.2	751.1	778.6	742.7	669.7	573.6	465.5	409.8	395.6	394.7	387.1	376.9	349.0	317.6	296.4	277.4	263.2	246.6	228.9	219.4	214.0	204.2	195.5	183.3	170.3	157.2	161.6	179.5	130.7	80.99	59.56	44.67	33.93	32.26	47.55	114.9	483.4	3099	2112	35.47	3.582	2.110	2.191	2.304	2.121	2.404	2.127	2.174	2.241	3.114	3.141	3.024	3.121	2.927	3.073	2.872	2.833	2.852	2.484	2.345	2.275	2.217	2.121	2.022	2.176	2.141	1.983	2.155	2.206	2.526	2.270	2.277	2.206	2.220	2.183
425.0	502.0	629.9	688.6	738.7	794.9	768.5	718.7	621.1	486.5	412.3	393.7	385.7	379.4	370.5	339.2	315.9	293.3	278.5	265.5	245.7	224.9	213.2	209.8	202.7	195.2	182.2	174.4	159.6	152.5	168.7	160.5	99.95	66.80	52.09	39.05	29.47	27.48	37.81	117.3	927.9	2406	1412	29.69	2.901	2.429	2.586	2.146	2.321	2.060	2.158	2.267	3.048	2.985	3.024	3.377	3.169	2.960	3.210	2.986	3.035	2.650	2.448	2.199	2.047	2.031	1.904	2.115	1.912	1.970	1.991	2.157	2.511	2.169	2.267	2.133	2.236	2.224
430.0	600.4	609.0	681.1	741.4	817.4	843.1	814.5	706.0	553.2	436.6	388.2	380.0	370.5	360.8	338.9	318.1	299.3	286.8	270.7	249.7	224.0	207.9	201.4	201.0	193.5	185.5	177.9	168.7	158.7	153.4	160.5	137.9	89.55	62.88	47.75	36.41	28.19	24.16	37.12	216.6	689.5	1315	1271	436.9	10.43	3.021	2.374	2.401	2.315	2.179	2.342	2.945	3.223	3.330	3.431	3.479	3.517	3.709	3.488	3.387	2.845	2.730	2.439	2.191	2.034	1.892	1.996	1.983	1.912	2.057	2.066	2.204	2.168	2.083	2.091	2.320	2.312
435.0	980.7	651.7	706.0	755.0	863.6	934.9	940.4	815.6	618.1	459.5	387.0	369.7	368.0	361.9	346.5	328.3	310.5	294.8	282.6	259.1	220.8	203.0	197.3	196.1	193.6	187.6	181.9	175.8	168.8	157.5	148.3	149.4	126.9	81.29	57.67	44.14	33.57	25.08	22.69	58.67	161.1	313.4	883.3	1993	239.9	11.40	2.943	2.804	2.633	2.178	2.437	3.189	3.462	3.344	3.826	3.924	4.025	4.299	4.116	3.809	3.188	2.844	2.454	2.320	2.126	1.785	1.945	1.819	2.106	2.017	2.061	2.147	2.268	2.013	2.192	2.306	2.386
440.0	1471	717.0	702.9	785.3	903.0	1010	1040	916.3	675.2	481.5	390.9	372.2	365.8	361.3	350.0	333.9	318.0	306.1	291.9	263.1	218.3	197.2	191.5	192.5	191.7	189.2	185.7	181.4	175.1	163.7	151.8	141.4	143.5	103.1	66.62	51.45	38.92	28.42	21.66	25.30	44.98	76.82	241.5	1434	1988	197.0	4.718	3.163	2.710	2.471	2.447	3.234	3.514	3.636	3.919	4.106	4.362	4.494	4.514	3.856	3.448	2.926	2.574	2.234	2.188	1.886	1.884	2.003	1.943	1.944	2.124	2.336	2.024	2.434	2.185	2.157	2.369
445.0	1651	1032	718.1	793.5	933.0	1080	1122	989.9	717.4	493.0	384.3	368.1	358.6	354.2	346.3	336.6	323.4	315.3	298.6	264.6	220.3	192.6	186.4	189.4	188.6	189.3	186.0	185.2	178.6	168.0	155.1	135.0	135.6	121.3	81.26	57.15	42.81	31.12	23.75	19.83	20.46	24.63	60.08	419.1	2328	1867	27.42	4.313	3.020	2.618	2.435	3.525	3.654	3.953	4.088	4.517	4.922	5.165	5.053	4.184	3.692	3.139	2.759	2.303	2.086	1.809	1.910	1.980	1.761	2.018	1.998	2.103	1.940	2.149	2.454	2.137	2.353
450.0	1254	1723	855.4	795.9	953.9	1120	1182	1047	750.5	497.3	376.3	354.6	347.7	346.7	342.7	335.3	327.1	314.4	302.2	265.8	214.6	183.0	174.9	178.3	180.9	184.6	183.4	182.8	181.7	170.9	157.7	138.5	123.6	119.6	102.9	68.21	47.31	34.94	26.83	21.05	17.12	14.88	20.87	99.89	684.5	2091	1746	564.3	9.713	2.978	2.825	3.797	3.783	3.979	4.333	4.608	5.106	5.178	5.076	4.677	3.875	3.213	2.773	2.327	1.950	1.812	1.787	1.897	1.840	1.990	1.936	2.071	2.116	2.074	2.315	2.279	2.399
455.0	744.5	1963	1276	786.3	951.8	1114	1193	1064	765.5	489.8	356.8	333.1	330.6	336.5	326.5	327.8	317.4	309.8	299.7	261.5	200.4	167.6	162.6	163.9	169.4	173.8	175.7	176.3	177.3	169.8	158.7	141.0	120.2	106.3	104.3	85.90	55.26	39.44	29.98	22.50	18.12	14.82	12.98	28.78	158.6	494.0	1100	2494	201.0	10.45	3.156	3.979	4.013	4.068	4.346	4.563	4.843	5.171	5.194	4.607	4.045	3.334	2.836	2.416	2.090	1.963	1.726	1.849	1.775	2.035	2.104	2.079	1.991	2.067	2.263	2.209	2.275
460.0	564.6	1489	2028	878.3	925.9	1099	1188	1051	757.6	478.1	337.9	315.9	318.9	313.5	315.8	319.2	313.3	302.5	286.3	250.5	192.5	161.0	153.5	156.9	161.8	165.3	165.5	170.0	171.0	168.0	153.1	136.9	117.6	101.5	91.23	90.41	66.37	41.52	31.16	23.70	19.20	15.56	12.32	13.88	41.58	115.9	285.8	1708	1649	160.0	5.713	4.323	3.983	4.012	4.496	4.657	4.924	5.070	4.886	4.555	3.730	3.323	2.706	2.435	2.304	1.831	1.829	1.921	1.684	1.921	1.924	2.005	1.840	1.977	2.122	2.382	2.291
465.0	489.4	947.8	2292	1225	885.7	1041	1144	1019	724.5	448.4	323.6	295.4	300.0	301.8	298.9	299.5	301.3	287.1	271.8	233.2	183.0	150.0	140.2	144.6	151.6	154.7	155.8	161.0	161.8	160.8	149.7	133.4	114.6	96.29	83.10	80.73	73.46	47.61	32.51	24.42	20.08	16.28	12.56	10.47	15.58	31.39	68.51	482.9	1694	1411	23.36	5.959	4.194	4.286	4.573	4.589	4.882	5.139	5.017	4.303	3.916	3.463	2.813	2.351	1.825	1.683	1.735	1.625	1.754	1.727	1.759	1.743	1.905	1.904	1.946	2.347	2.180
470.0	486.4	607.3	1591	1959	960.0	973.1	1059	939.4	660.9	413.0	298.8	270.4	272.2	274.5	272.9	272.7	272.5	262.6	248.6	214.2	164.6	134.4	126.5	130.0	136.1	140.3	143.5	146.6	147.9	146.8	138.1	124.1	107.6	90.74	76.72	67.54	65.99	55.36	36.78	26.27	20.41	16.45	13.43	10.87	10.15	12.80	19.93	112.3	468.6	1436	1350	735.9	11.86	4.386	4.291	4.455	4.707	4.813	4.490	4.181	3.470	3.204	2.522	2.141	1.622	1.540	1.468	1.679	1.538	1.568	1.672	1.697	1.754	1.810	1.916	1.991	2.074
475.0	483.5	493.1	811.1	2075	1538	882.4	949.0	837.3	596.1	378.2	264.7	244.0	244.9	242.4	240.9	244.5	242.0	230.7	223.1	190.7	146.1	118.5	111.8	115.9	120.1	125.3	127.9	132.6	133.8	133.4	126.1	113.4	99.23	82.11	70.40	60.75	52.62	51.68	44.52	28.38	20.82	16.17	13.29	11.18	9.198	8.854	9.297	29.19	107.9	331.3	701.1	2852	208.4	16.01	4.196	4.380	4.444	4.504	4.136	3.923	3.385	2.711	2.324	1.816	1.701	1.393	1.340	1.517	1.263	1.531	1.392	1.533	1.565	1.631	1.720	1.621	1.868
480.0	464.4	463.4	537.8	1443	2226	888.8	867.4	772.0	553.5	340.3	243.2	220.7	222.4	223.7	220.2	224.1	222.2	213.0	202.6	172.0	130.9	107.1	101.5	105.7	108.9	114.3	118.3	120.9	121.5	122.7	116.8	105.7	92.32	78.47	66.05	56.50	46.45	43.81	44.68	34.19	21.84	16.52	13.59	10.85	9.313	8.198	6.762	10.57	27.73	77.13	172.5	1574	1706	207.8	10.27	4.224	4.093	4.114	4.195	3.473	3.030	2.707	2.080	1.676	1.633	1.391	1.326	1.404	1.315	1.462	1.384	1.401	1.475	1.434	1.548	1.528	1.672
485.0	430.0	474.6	456.8	855.8	2489	1173	797.2	708.4	510.0	322.1	232.3	210.6	206.0	204.8	202.5	205.7	205.8	195.7	188.0	159.9	118.1	98.87	95.72	97.39	99.28	105.5	107.4	111.1	112.5	112.2	106.4	97.75	86.79	75.38	62.74	52.99	44.08	38.16	38.88	37.07	24.96	16.66	13.20	11.11	8.933	8.368	6.929	6.786	9.879	20.36	41.71	410.0	1487	1424	169.5	5.702	4.074	3.878	3.825	3.360	2.968	2.527	1.953	1.556	1.469	1.318	1.366	1.390	1.339	1.266	1.250	1.320	1.403	1.414	1.564	1.656	1.514
490.0	340.4	450.1	407.4	538.7	1710	1915	827.9	625.6	446.9	288.6	208.4	188.1	185.6	184.7	182.6	183.8	183.7	174.6	166.4	143.9	108.4	88.06	84.72	86.02	88.81	93.52	96.49	98.88	101.7	101.4	96.67	89.43	78.77	68.14	57.94	49.04	40.71	34.33	31.26	33.48	30.35	19.79	13.63	11.06	9.343	8.224	7.261	6.283	6.071	7.926	12.33	95.26	385.1	849.8	1466	558.4	14.43	3.695	3.545	3.127	2.698	2.181	1.848	1.559	1.352	1.232	1.178	1.262	1.187	1.203	1.220	1.265	1.192	1.345	1.337	1.412	1.516
495.0	283.3	388.7	398.8	405.2	803.1	2035	1234	555.0	400.6	258.0	184.1	170.4	163.7	167.8	161.4	161.6	159.3	153.5	144.7	124.0	95.19	78.16	72.33	75.60	78.30	83.03	85.42	86.28	88.53	90.40	86.10	80.07	71.62	60.61	52.17	44.73	38.22	31.83	27.38	25.72	28.59	24.84	15.77	11.53	9.903	8.190	7.144	6.615	5.488	5.145	5.768	24.59	88.92	194.0	642.8	1634	682.1	17.26	3.428	2.883	2.544	2.049	1.904	1.537	1.196	1.321	1.162	1.184	1.148	1.165	1.118	1.181	1.194	1.356	1.184	1.172	1.324
500.0	247.7	330.7	405.8	357.4	496.2	1423	1738	590.8	358.2	230.8	170.7	149.6	147.7	151.2	143.8	142.8	141.7	136.5	128.9	109.3	84.47	69.81	65.05	66.87	69.32	72.90	76.33	77.16	79.85	79.56	77.55	72.17	62.98	56.46	47.89	41.95	35.28	28.83	25.85	21.95	22.68	25.80	19.33	11.58	9.493	8.025	6.990	6.252	5.532	4.817	4.431	8.859	22.83	46.46	153.5	806.8	1392	218.6	11.51	3.016	2.338	1.974	1.627	1.305	1.141	1.145	0.994	1.131	1.015	1.130	1.117	1.078	1.153	1.191	1.220	1.091	1.162
505.0	217.5	278.8	392.8	340.8	384.7	819.9	1922	994.9	316.5	203.3	148.1	134.5	132.4	133.4	128.3	126.3	127.3	122.3	114.7	98.37	75.56	63.16	58.71	60.89	62.26	65.44	67.75	70.46	71.86	72.77	69.48	63.67	57.65	50.66	44.25	38.56	32.26	26.79	23.35	20.20	19.14	21.63	21.50	14.15	9.834	8.104	7.092	6.106	5.760	5.093	4.298	5.295	8.171	13.54	37.71	200.3	815.4	993.5	185.8	6.229	2.250	1.837	1.594	1.262	1.055	1.074	0.987	1.000	0.886	1.005	1.019	0.969	0.995	1.120	1.178	1.213	1.205
510.0	192.4	211.4	300.2	344.9	327.3	459.2	1260	2037	375.2	175.6	131.9	118.3	115.7	115.8	111.1	108.2	108.3	104.0	95.54	83.13	65.06	54.47	50.56	52.22	54.23	55.84	57.83	59.10	60.97	61.05	59.59	55.35	49.80	43.67	38.73	33.91	28.43	24.45	21.12	18.20	16.11	15.89	18.68	17.03	11.83	8.004	6.904	6.052	5.286	4.762	4.434	4.525	4.878	5.936	11.36	47.59	201.2	498.1	809.0	410.3	14.27	2.056	1.584	1.205	1.125	0.938	0.898	0.872	0.906	0.932	0.907	0.981	0.915	0.911	0.964	1.125	1.026
515.0	160.0	170.5	216.6	321.8	303.1	329.8	567.5	2189	868.2	157.2	113.4	103.4	101.5	98.24	91.47	93.29	89.83	85.89	79.36	69.08	54.20	46.43	42.89	43.80	46.09	47.11	47.69	50.90	51.83	52.68	50.80	46.62	41.86	37.63	33.28	28.94	25.04	21.84	18.86	16.32	14.54	13.11	13.59	15.91	14.51	9.273	6.904	5.746	5.164	4.419	4.285	4.421	4.146	4.257	5.230	13.23	47.40	113.8	279.6	897.4	589.8	20.08	1.708	1.158	0.968	0.939	0.865	0.888	0.836	0.907	0.893	0.851	0.831	0.862	0.900	0.888	0.938
520.0	140.6	157.8	167.6	283.2	290.2	278.1	343.9	1427	1551	213.7	103.7	92.38	91.90	86.69	82.04	79.72	78.99	75.30	70.05	59.35	48.45	39.66	37.76	38.54	40.42	40.83	42.80	44.98	45.30	46.06	44.89	41.02	36.60	33.68	30.13	26.04	23.17	19.85	17.24	15.19	13.54	11.88	11.19	12.67	15.44	11.22	7.135	5.685	5.062	4.332	4.118	4.584	4.155	3.558	3.839	5.564	13.03	27.76	65.78	367.6	974.7	234.5	15.48	1.316	1.041	1.050	0.737	0.807	0.835	0.734	0.759	0.802	0.830	0.782	0.746	0.832	0.862
525.0	116.2	151.6	147.5	213.2	299.7	249.3	262.4	676.7	1893	524.7	97.18	83.35	80.73	75.60	73.16	71.46	69.42	66.28	60.84	52.26	43.01	35.60	33.81	34.73	35.37	36.03	37.43	37.98	40.55	40.61	39.46	36.28	33.31	29.63	26.47	22.86	20.34	17.39	16.24	14.33	12.25	11.14	9.987	9.526	12.89	12.66	8.558	5.607	4.838	4.140	3.857	4.391	4.258	3.690	3.395	3.809	5.198	8.234	16.81	88.18	476.0	893.8	211.2	6.035	1.279	0.981	0.821	0.805	0.761	0.655	0.720	0.753	0.695	0.747	0.701	0.748	0.752
530.0	103.7	116.2	125.8	154.5	260.1	242.1	209.7	296.2	1208	1530	168.7	74.05	70.99	66.14	62.50	60.48	59.06	55.18	50.89	43.96	36.38	30.27	29.03	29.61	29.81	29.94	31.62	32.52	34.02	34.71	33.78	31.17	28.23	25.19	22.58	19.92	17.63	15.61	14.17	12.29	11.34	9.710	8.911	8.153	9.086	11.22	10.49	6.837	4.713	3.996	3.603	3.777	3.728	3.866	3.352	3.155	3.248	3.776	5.642	21.52	113.3	393.0	671.8	340.8	15.35	1.189	0.877	0.779	0.711	0.718	0.753	0.694	0.637	0.711	0.619	0.689	0.717
535.0	95.84	105.4	101.0	121.8	192.1	247.0	182.9	179.3	417.4	1923	782.7	67.73	58.52	55.88	53.91	49.47	48.10	45.47	41.67	37.40	30.48	25.79	24.91	24.64	24.58	24.89	25.96	27.47	28.20	28.48	28.00	25.21	24.07	21.45	19.21	16.93	15.31	14.06	11.93	10.63	10.02	8.314	7.853	7.502	6.938	7.609	9.462	8.443	5.391	3.865	3.386	3.328	3.299	3.238	3.366	3.196	2.631	2.516	2.967	6.407	26.59	88.85	200.8	637.9	531.4	21.30	1.221	0.849	0.836	0.638	0.652	0.677	0.648	0.635	0.655	0.591	0.699
540.0	84.28	93.46	81.70	104.7	140.7	233.4	180.8	136.6	171.6	1217	1659	129.5	52.39	49.97	47.62	43.55	41.01	38.95	34.69	31.78	26.26	21.27	21.16	21.19	21.57	22.66	22.83	23.34	24.39	25.06	23.75	22.62	20.61	19.44	16.69	15.00	13.55	12.56	10.48	9.481	8.711	7.837	7.128	6.704	6.247	5.922	7.330	8.658	6.396	3.990	3.307	3.077	2.808	2.746	2.863	3.173	2.860	2.353	2.294	2.961	7.326	20.97	46.50	241.1	780.9	233.4	14.05	1.017	0.822	0.690	0.597	0.680	0.642	0.621	0.493	0.563	0.673
545.0	75.36	81.19	77.59	92.47	111.5	196.4	185.4	116.6	104.7	495.8	2109	444.6	47.71	43.51	41.05	37.23	36.57	33.80	31.22	28.44	22.81	18.75	18.33	18.55	18.59	19.69	19.89	19.83	20.75	21.65	20.60	19.60	18.46	16.97	14.42	13.27	12.23	11.03	9.586	8.395	8.160	7.130	6.381	5.715	5.568	5.178	5.821	7.430	7.046	4.515	3.186	3.055	2.749	2.459	2.589	3.207	2.858	2.290	1.951	2.227	2.868	5.800	11.61	56.63	351.7	588.1	184.6	6.392	1.007	0.745	0.645	0.543	0.548	0.587	0.522	0.526	0.599
550.0	68.59	70.66	70.77	75.11	88.28	134.2	188.8	108.9	78.90	163.1	1264	1618	102.9	35.95	33.69	30.93	29.80	28.17	25.48	23.32	18.87	16.05	15.14	15.53	15.56	16.26	16.24	16.44	17.48	17.67	17.10	16.11	15.04	13.84	12.07	11.21	9.781	9.040	8.120	7.534	6.884	6.205	5.530	5.073	4.805	4.472	4.350	4.969	6.130	5.280	3.422	2.776	2.376	2.372	2.451	2.300	2.547	2.504	1.901	1.734	1.674	2.318	3.536	13.66	82.66	242.0	387.8	234.4	15.53	1.077	0.728	0.602	0.569	0.535	0.536	0.514	0.584
555.0	65.51	58.74	55.81	60.42	74.62	87.23	154.2	121.3	65.94	70.80	362.5	2056	643.6	32.67	26.70	26.48	24.25	22.40	20.08	18.29	15.42	13.34	12.83	12.75	12.69	12.62	13.01	12.82	14.09	14.37	13.96	12.45	12.53	11.42	9.895	9.567	8.044	7.870	6.694	6.354	5.538	5.312	4.747	4.492	3.995	3.597	3.686	3.520	4.199	5.212	4.196	2.941	2.244	2.061	2.063	1.946	2.035	2.231	2.109	1.650	1.465	1.560	1.589	3.991	19.39	54.81	113.5	389.3	258.3	18.52	0.902	0.685	0.456	0.660	0.564	0.463	0.510
560.0	54.44	61.47	57.28	54.42	58.95	69.79	111.4	139.6	56.28	48.45	112.4	1306	1396	55.11	23.67	22.62	19.28	19.78	17.32	14.74	12.97	11.00	10.87	10.73	10.87	10.45	10.89	11.36	11.83	11.92	11.39	10.88	10.06	9.366	8.435	7.987	6.777	6.764	5.560	5.226	4.758	4.552	4.128	4.027	3.385	3.253	3.047	3.117	2.880	3.945	4.393	3.142	2.112	1.783	1.756	1.712	1.681	1.607	2.183	1.648	1.345	1.436	1.160	1.879	5.256	13.12	26.43	142.2	550.0	205.6	11.48	0.820	0.543	0.504	0.531	0.449	0.479
565.0	55.46	51.53	45.42	46.78	48.21	56.41	70.30	140.3	65.57	41.17	51.10	490.1	2011	141.2	22.37	19.68	16.03	16.19	15.89	12.82	10.98	9.475	9.247	9.140	9.052	9.257	9.108	9.560	10.05	10.41	9.694	9.507	8.455	7.914	6.807	6.681	5.880	5.513	4.947	4.871	3.978	4.143	3.486	3.113	3.284	2.776	2.702	2.563	2.337	2.839	3.718	3.565	2.327	1.758	1.710	1.638	1.558	1.489	1.735	2.092	1.417	1.118	0.985	1.299	2.032	3.857	6.769	33.74	244.1	426.9	154.1	4.613	0.644	0.499	0.529	0.553	0.521
570.0	47.88	47.35	42.36	36.23	40.19	44.07	51.36	98.85	91.78	36.40	34.62	139.9	1226	795.3	52.98	15.09	14.09	13.19	12.33	10.72	8.993	7.769	7.565	7.806	7.268	7.688	7.438	7.547	8.031	8.319	7.726	7.285	6.795	6.278	5.891	5.474	4.905	4.571	3.992	3.846	3.523	3.384	3.011	2.644	2.685	2.577	2.338	2.164	1.936	1.932	2.587	3.114	2.684	1.830	1.478	1.380	1.422	1.312	1.378	1.616	1.615	1.416	1.002	1.179	1.223	1.701	2.384	8.368	57.18	171.7	345.3	146.8	13.36	0.666	0.483	0.509	0.486
575.0	49.52	45.93	37.27	32.28	34.80	35.49	40.24	59.22	108.5	48.50	28.89	51.28	355.9	1107	338.5	14.70	11.98	10.93	9.349	8.474	7.044	6.356	6.083	6.268	6.314	6.138	6.064	6.487	6.121	6.572	6.206	5.894	5.378	5.126	4.884	4.304	4.080	3.720	3.430	3.022	3.057	2.756	2.463	2.357	2.245	2.194	1.886	1.842	1.798	1.505	1.755	2.090	2.532	2.406	1.458	1.222	1.210	1.196	1.173	1.295	1.404	1.540	1.053	0.933	0.886	1.147	1.281	2.735	13.56	39.07	103.2	301.9	212.2	13.70	0.543	0.515	0.580
580.0	43.02	45.66	36.06	31.48	32.40	28.61	31.78	37.65	93.74	69.11	27.56	31.07	100.2	729.9	867.0	27.32	10.40	9.496	8.361	7.185	6.525	5.283	5.180	5.222	5.385	5.624	4.836	5.256	5.036	4.981	5.459	5.076	4.588	4.634	3.983	3.669	3.545	3.112	2.950	2.783	2.536	2.254	2.081	2.196	1.978	1.887	1.776	1.643	1.548	1.339	1.365	1.548	2.090	2.391	1.618	1.170	1.095	1.067	1.100	1.079	1.083	1.210	1.377	1.026	0.904	0.948	0.997	1.398	3.823	9.528	24.00	110.3	298.1	123.5	5.578	0.545	0.452
585.0	45.82	39.68	36.77	29.01	27.19	24.37	26.89	28.44	65.00	88.17	30.27	24.52	39.11	277.4	1212	94.47	9.432	8.305	7.390	6.545	5.493	4.926	4.453	4.475	4.482	4.388	4.434	4.388	4.677	4.935	4.570	4.194	3.968	3.845	3.472	3.149	3.114	2.645	2.663	2.467	2.190	2.033	1.889	1.979	1.887	1.749	1.527	1.443	1.276	1.181	1.210	1.262	1.655	2.196	1.822	1.303	1.063	0.955	1.107	0.996	0.892	1.001	1.483	1.228	0.832	0.822	0.935	1.165	1.501	2.772	6.123	25.95	130.0	229.4	33.95	2.500	0.428
590.0	43.24	38.90	32.01	28.44	24.17	23.17	24.67	24.62	39.02	87.41	48.33	25.04	24.36	79.93	756.3	625.8	26.27	8.053	6.053	5.565	4.543	4.105	3.608	3.866	3.776	3.505	3.671	3.871	3.800	4.043	3.950	3.428	3.337	3.119	3.025	2.764	2.447	2.321	2.215	2.158	1.880	1.633	1.641	1.587	1.529	1.426	1.358	1.347	1.161	0.998	0.975	1.148	1.122	1.549	1.751	1.544	1.112	0.937	0.934	0.904	0.818	0.839	1.057	1.234	0.984	0.832	0.828	0.856	0.934	1.199	1.951	6.321	30.55	90.66	127.7	92.42	10.42
595.0	48.63	38.54	36.69	27.11	22.58	22.30	24.53	24.42	29.56	64.93	77.16	30.24	25.64	33.39	213.9	928.2	97.93	8.620	5.429	4.302	3.859	3.493	3.009	3.160	3.344	2.962	3.061	3.138	3.147	3.239	3.211	2.820	2.704	2.457	2.332	2.277	2.011	1.971	1.683	1.808	1.613	1.576	1.482	1.247	1.265	1.240	1.129	1.139	0.987	0.964	0.833	0.855	0.872	1.033	1.329	1.484	1.280	0.914	0.815	0.827	0.830	0.732	0.801	1.005	1.204	0.910	0.883	0.760	0.782	0.749	0.911	1.903	7.204	20.66	37.14	142.6	118.1
600.0	53.67	46.05	41.07	30.80	26.40	23.95	26.13	28.09	30.48	48.52	92.20	47.80	33.05	28.25	67.20	622.4	540.0	19.89	5.283	4.030	3.361	3.329	2.911	2.903	2.762	2.821	2.928	2.373	2.745	2.682	2.775	2.558	2.212	2.052	1.830	1.958	1.864	1.800	1.585	1.548	1.511	1.276	1.312	1.090	1.238	1.132	1.055	0.952	0.863	0.832	0.751	0.811	0.700	0.855	1.099	1.348	1.263	0.943	0.791	0.701	0.746	0.694	0.683	0.751	1.016	1.113	0.969	0.679	0.748	0.724	0.693	0.924	1.983	5.039	8.870	50.97	156.3
605.0	66.80	58.62	44.92	32.69	33.97	30.15	32.58	41.20	48.16	57.98	108.5	86.64	53.50	44.42	46.70	252.9	847.5	76.06	5.535	3.670	3.029	2.826	2.471	2.578	2.539	2.328	2.385	2.111	2.336	2.183	2.368	2.458	2.096	1.873	1.693	1.619	1.697	1.544	1.385	1.386	1.304	1.232	1.119	1.015	1.103	1.031	1.035	0.888	0.877	0.872	0.679	0.829	0.717	0.769	0.771	1.103	1.362	1.078	0.917	0.822	0.735	0.721	0.773	0.650	0.867	0.987	1.214	0.919	0.851	0.780	0.721	0.723	1.002	1.618	2.494	12.09	66.13
610.0	75.34	74.87	64.01	45.07	40.55	40.72	51.59	66.78	84.99	107.7	145.6	166.1	116.4	89.54	77.12	111.9	628.0	662.8	15.10	3.496	2.789	2.513	2.189	2.236	2.207	2.125	1.984	1.874	2.072	1.962	1.803	1.931	1.769	1.628	1.514	1.349	1.429	1.308	1.309	1.205	1.140	1.042	1.057	0.872	0.948	0.957	0.866	0.863	0.804	0.790	0.696	0.780	0.693	0.658	0.696	0.885	1.081	1.284	0.997	0.911	0.806	0.910	0.887	0.931	0.982	1.096	1.368	1.289	1.123	1.018	0.887	0.879	0.922	1.030	1.181	3.272	15.88
615.0	83.11	91.39	73.62	62.07	46.89	50.93	60.49	81.43	100.7	134.0	157.5	201.8	160.1	113.4	101.1	86.99	244.9	1102	72.82	3.590	2.436	2.055	1.931	1.875	2.031	1.739	1.662	1.813	1.654	1.688	1.663	1.647	1.525	1.472	1.421	1.187	1.339	1.156	1.185	1.147	0.960	0.905	0.906	0.914	0.969	0.783	0.843	0.776	0.731	0.765	0.641	0.760	0.668	0.663	0.641	0.682	0.881	1.061	1.155	0.995	0.807	0.913	0.987	1.112	1.124	1.084	1.122	1.290	1.427	1.193	1.022	1.033	0.983	1.057	0.978	1.348	4.189
620.0	85.93	96.32	85.31	61.36	52.56	54.79	64.73	82.71	98.52	126.4	148.6	186.7	172.6	121.6	102.4	78.51	116.8	841.0	333.5	5.188	2.428	2.295	1.891	1.552	1.822	1.522	1.530	1.507	1.441	1.439	1.409	1.608	1.360	1.319	1.273	1.077	1.084	1.106	1.002	0.974	0.826	0.856	0.769	0.784	0.834	0.779	0.824	0.785	0.712	0.705	0.578	0.652	0.628	0.652	0.658	0.759	0.764	0.757	1.072	1.034	0.904	0.912	0.995	1.040	0.933	1.062	1.050	1.324	1.385	1.222	1.109	1.083	0.970	0.967	0.809	0.971	1.471
625.0	94.99	99.35	88.96	64.91	51.80	51.59	67.40	83.43	95.26	119.1	138.0	168.9	177.8	124.3	100.6	75.64	81.89	385.0	591.1	27.86	2.457	2.043	2.018	1.557	1.529	1.340	1.406	1.277	1.288	1.429	1.398	1.268	1.205	1.172	1.050	0.975	0.812	1.023	0.917	0.950	0.806	0.747	0.725	0.717	0.754	0.792	0.689	0.840	0.744	0.636	0.599	0.601	0.582	0.593	0.582	0.602	0.664	0.752	0.969	1.142	0.962	0.818	0.850	0.955	0.914	1.017	1.089	1.169	1.224	1.324	1.065	1.055	1.029	0.927	0.772	0.804	0.970
630.0	101.6	104.1	93.91	70.62	55.77	55.54	68.81	80.96	92.51	113.8	136.4	155.1	169.6	134.9	99.94	73.90	72.25	125.9	466.4	193.1	5.140	2.007	1.721	1.329	1.299	1.272	1.213	1.318	1.146	1.156	1.235	1.143	1.000	1.030	0.977	0.889	0.804	0.912	0.863	0.797	0.782	0.710	0.745	0.677	0.713	0.768	0.722	0.763	0.723	0.672	0.591	0.588	0.591	0.590	0.578	0.582	0.625	0.677	0.817	0.981	0.989	0.867	0.824	0.951	0.917	1.027	1.067	1.034	1.200	1.118	1.214	1.108	1.012	0.941	0.876	0.731	0.783
635.0	104.4	118.1	110.2	76.70	63.30	57.32	69.09	81.61	93.31	113.7	131.3	151.0	158.8	146.6	102.8	75.30	69.47	57.20	149.0	413.8	44.87	1.938	1.461	1.209	1.271	1.120	0.864	1.113	1.095	0.966	0.985	0.918	0.883	0.928	0.837	0.821	0.723	0.660	0.683	0.705	0.718	0.701	0.671	0.575	0.668	0.785	0.711	0.769	0.710	0.665	0.574	0.593	0.564	0.691	0.535	0.559	0.617	0.663	0.675	0.814	0.875	0.897	0.839	0.916	0.844	0.925	1.064	0.971	1.114	1.071	1.161	1.087	1.089	0.906	0.900	0.746	0.678
640.0	104.8	118.3	108.1	79.66	60.77	56.99	68.98	74.66	88.74	106.7	128.4	148.5	146.2	149.0	109.7	76.26	70.09	41.62	43.17	348.9	181.1	3.142	1.408	1.149	1.197	1.156	0.976	1.212	1.052	0.830	0.990	0.795	0.776	0.899	0.705	0.685	0.798	0.771	0.691	0.673	0.558	0.623	0.676	0.542	0.641	0.681	0.754	0.725	0.647	0.587	0.550	0.600	0.582	0.679	0.511	0.625	0.612	0.615	0.667	0.702	0.796	0.881	0.801	0.996	0.842	0.760	1.034	1.005	1.003	1.141	1.019	1.149	0.993	0.964	0.875	0.746	0.718
645.0	101.6	125.1	106.0	77.19	61.22	52.45	65.59	74.42	81.35	102.4	121.7	138.1	140.4	137.7	115.2	73.91	67.07	37.94	17.17	163.2	351.0	15.25	1.425	1.217	1.254	1.016	0.953	1.047	0.872	0.843	0.879	0.830	0.750	0.794	0.795	0.692	0.678	0.592	0.603	0.635	0.535	0.638	0.646	0.616	0.620	0.597	0.648	0.590	0.622	0.504	0.522	0.511	0.552	0.597	0.475	0.594	0.651	0.558	0.811	0.663	0.681	0.812	0.809	0.883	0.882	0.797	0.963	0.939	0.986	1.077	0.988	1.076	0.940	0.962	0.795	0.679	0.760
650.0	107.5	115.2	111.9	74.56	61.90	50.86	64.27	72.20	78.80	95.46	115.7	131.2	127.6	118.9	114.5	71.78	61.01	34.48	11.37	50.10	380.5	59.90	1.791	1.170	1.293	1.022	0.830	1.119	1.003	0.891	0.797	0.719	0.747	0.759	0.769	0.547	0.568	0.551	0.615	0.545	0.540	0.736	0.708	0.550	0.499	0.629	0.585	0.621	0.592	0.519	0.449	0.557	0.480	0.582	0.462	0.578	0.493	0.615	0.636	0.605	0.827	0.707	0.912	0.730	0.820	0.779	0.799	1.015	1.011	1.023	0.786	0.880	1.005	0.975	0.852	0.771	0.698
