Sample:	'1
File name:	Default_20231010_195919.FD3
Run date:	'19:52:58, 10/10/2023
Operator:	dsjg
Comment:	'

Instrument
Model:	F-2700 FL Spectrophotometer
Serial number:	2198-001
ROM Version:	4J14000 07

Instrument parameters
Measurement type:	3-D scan
Data mode:	Fluorescence
EX  Start WL:	220.0 nm
EX  End WL:	600.0 nm
EX Sampling interval:	5.0 nm
EM  Start WL:	230.0 nm
EM  End WL:	650.0 nm
EM Sampling interval:	5.0 nm
Scan speed:	12000 nm/min
EX Slit:	5.0 nm
EM Slit:	5.0 nm
PMT Voltage:	700 V
Response:	Auto 
Corrected spectra:	Off
Contour interval:	50.000

Peak integration
Integration method:	Rectangular
Sensitivity:	1
Threshold:	1.000

Peaks
No.	ApexEX/EM(nm)	Height(Data)
1	225.0/335.0	540.3
2	230.0/605.0	11.76
3	235.0/575.0	4.394
4	235.0/620.0	9.654
5	245.0/535.0	54.72
6	250.0/550.0	40.52
7	255.0/560.0	33.29
8	260.0/575.0	29.31
9	265.0/340.0	741.6
10	270.0/300.0	533.7
11	270.0/335.0	738.4
12	270.0/600.0	38.34
13	270.0/640.0	23.22
14	275.0/310.0	624.0
15	275.0/415.0	 3213
16	275.0/435.0	 3338
17	275.0/610.0	36.23
18	280.0/620.0	29.15
19	305.0/345.0	291.4
20	310.0/350.0	252.4
21	325.0/370.0	166.4
22	330.0/375.0	156.6
23	350.0/415.0	 1912
24	350.0/435.0	 1997
25	380.0/415.0	 1638
26	380.0/435.0	 1707
27	430.0/505.0	9.665
28	435.0/510.0	8.073
29	440.0/520.0	7.184
30	445.0/525.0	6.354
31	450.0/530.0	5.301
32	455.0/540.0	4.553
33	460.0/545.0	4.034
34	470.0/560.0	2.493
35	475.0/565.0	1.955
36	545.0/345.0	4.098
37	550.0/340.0	4.181
38	560.0/435.0	13.53
39	570.0/315.0	3.597

Data points
	220.0	225.0	230.0	235.0	240.0	245.0	250.0	255.0	260.0	265.0	270.0	275.0	280.0	285.0	290.0	295.0	300.0	305.0	310.0	315.0	320.0	325.0	330.0	335.0	340.0	345.0	350.0	355.0	360.0	365.0	370.0	375.0	380.0	385.0	390.0	395.0	400.0	405.0	410.0	415.0	420.0	425.0	430.0	435.0	440.0	445.0	450.0	455.0	460.0	465.0	470.0	475.0	480.0	485.0	490.0	495.0	500.0	505.0	510.0	515.0	520.0	525.0	530.0	535.0	540.0	545.0	550.0	555.0	560.0	565.0	570.0	575.0	580.0	585.0	590.0	595.0	600.0
230.0	105.4	 1511	 2059	330.5	2.303	-1.464	-1.578	-0.956	-0.613	0.066	0.232	0.285	0.280	0.090	0.205	-0.016	0.179	0.084	0.097	0.171	0.148	0.252	0.288	0.443	0.351	0.463	0.431	0.296	0.296	0.335	0.304	0.256	0.294	0.218	0.165	0.222	0.168	0.129	0.053	-0.021	0.014	0.054	0.085	0.017	-0.031	-0.073	0.582	4.522	9.797	8.413	3.193	0.382	-0.102	-0.155	-0.167	-0.163	-0.191	-0.222	-0.238	-0.206	-0.272	-0.232	-0.285	-0.291	-0.266	-0.312	-0.274	-0.291	-0.295	-0.285	-0.330	-0.344	-0.310	-0.362	-0.347	-0.393	-0.342
235.0	37.68	450.1	 1695	 2047	324.9	6.991	-0.611	0.442	-0.435	0.194	0.070	0.500	0.109	0.021	0.005	0.033	-0.103	0.103	0.143	0.269	0.196	0.359	0.052	0.479	0.370	0.598	0.487	0.478	0.176	0.399	0.327	0.309	0.150	0.249	0.170	0.254	0.248	0.179	0.080	0.044	0.086	0.037	-0.003	0.058	0.037	0.007	0.061	1.017	3.045	6.042	8.523	10.43	5.036	0.697	-0.123	-0.181	-0.224	-0.206	-0.261	-0.225	-0.213	-0.243	-0.252	-0.306	-0.261	-0.315	-0.238	-0.260	-0.294	-0.321	-0.358	-0.352	-0.296	-0.341	-0.412	-0.391	-0.283
240.0	51.46	115.4	632.4	 2332	 2011	228.4	2.169	0.475	0.575	0.715	0.552	0.693	0.453	0.280	0.151	0.043	0.145	0.188	0.139	0.277	0.264	0.277	0.420	0.523	0.441	0.639	0.476	0.413	0.359	0.328	0.266	0.334	0.207	0.264	0.225	0.216	0.145	0.141	0.159	0.091	0.059	-0.057	-0.073	0.057	0.107	0.186	0.046	0.208	0.633	1.604	3.870	10.91	14.62	10.57	3.426	0.241	-0.118	-0.204	-0.279	-0.212	-0.178	-0.307	-0.281	-0.307	-0.268	-0.255	-0.300	-0.243	-0.324	-0.210	-0.399	-0.334	-0.335	-0.364	-0.379	-0.395	-0.394
245.0	48.23	80.76	157.2	 1072	 2902	 1887	155.9	2.119	1.227	0.173	1.136	1.122	0.642	0.551	0.462	0.224	0.392	0.117	0.151	0.219	0.255	0.307	0.492	0.413	0.368	0.518	0.510	0.477	0.379	0.226	0.325	0.298	0.249	0.191	0.205	0.205	0.111	0.090	0.091	0.067	0.106	0.021	-0.050	-0.047	-0.016	0.124	0.191	0.063	0.152	0.324	0.931	3.502	8.970	16.38	16.93	9.335	1.824	-0.143	-0.217	-0.157	-0.212	-0.246	-0.292	-0.231	-0.240	-0.256	-0.315	-0.250	-0.312	-0.257	-0.388	-0.392	-0.337	-0.341	-0.423	-0.347	-0.413
250.0	12.60	76.42	103.3	271.1	 1213	 2813	 2687	642.7	19.14	2.060	2.301	1.829	0.963	1.075	0.510	0.567	0.584	0.351	0.199	0.369	0.436	0.244	0.286	0.374	0.468	0.534	0.569	0.441	0.399	0.469	0.461	0.283	0.348	0.184	0.235	0.169	0.177	0.094	0.082	0.048	0.032	0.033	-0.012	-0.018	-0.049	-0.056	0.087	0.115	0.308	0.342	0.317	0.779	2.097	5.142	9.655	15.53	18.73	15.16	7.921	1.849	-0.094	-0.184	-0.248	-0.181	-0.218	-0.264	-0.299	-0.293	-0.291	-0.341	-0.299	-0.327	-0.316	-0.323	-0.376	-0.385	-0.389
255.0	-7.744	21.50	94.80	136.8	284.3	873.6	 3128	 3791	233.9	18.91	3.987	2.574	1.917	1.357	0.706	0.754	0.624	0.564	0.249	0.553	0.269	0.410	0.262	0.587	0.552	0.454	0.465	0.433	0.441	0.431	0.388	0.262	0.372	0.173	0.171	0.153	0.170	0.043	0.027	-0.080	-0.035	0.056	0.032	-0.056	0.046	-0.043	-0.061	0.054	0.056	0.246	0.398	0.420	0.517	1.096	2.062	3.630	7.554	16.43	26.73	24.39	11.77	1.771	-0.162	-0.211	-0.220	-0.200	-0.276	-0.238	-0.307	-0.305	-0.319	-0.262	-0.295	-0.349	-0.402	-0.402	-0.371
260.0	-15.39	-1.604	38.18	118.0	122.1	210.9	 1215	 4046	 3475	194.8	11.40	4.790	2.483	2.223	1.093	0.921	0.779	0.647	0.456	0.479	0.286	0.574	0.476	0.655	0.715	0.580	0.537	0.657	0.395	0.437	0.419	0.348	0.448	0.246	0.352	0.191	0.106	0.000	-0.011	-0.059	-0.022	0.003	0.104	-0.021	0.159	-0.026	0.017	-0.006	0.009	0.097	0.172	0.527	0.572	0.425	0.419	0.722	1.685	4.432	12.65	26.15	32.79	21.75	7.996	0.503	-0.238	-0.241	-0.219	-0.255	-0.262	-0.310	-0.339	-0.254	-0.226	-0.335	-0.396	-0.413	-0.341
265.0	-9.628	-4.338	12.05	70.36	124.6	84.39	295.0	 1762	 4732	 3676	154.1	7.024	3.963	2.560	1.613	1.378	1.063	0.716	0.721	0.498	0.539	0.521	0.612	0.501	0.582	0.833	0.644	0.668	0.367	0.499	0.395	0.380	0.429	0.441	0.358	0.183	0.228	0.044	-0.110	-0.028	-0.114	-0.035	0.088	-0.007	0.051	-0.011	-0.002	0.007	-0.047	0.054	0.029	0.118	0.409	0.568	0.340	0.129	0.331	0.824	2.890	8.258	19.60	33.62	29.18	17.21	3.917	-0.097	-0.204	-0.176	-0.245	-0.278	-0.338	-0.228	-0.346	-0.370	-0.366	-0.334	-0.407
270.0	-6.967	-4.292	1.303	20.58	74.80	115.8	115.8	427.4	 1794	 4631	 3660	679.7	37.82	3.546	2.743	1.917	1.510	1.082	0.967	0.667	0.623	0.726	0.888	0.686	0.776	0.883	0.730	0.608	0.521	0.596	0.408	0.369	0.463	0.383	0.404	0.225	0.258	0.102	0.003	-0.060	-0.048	-0.040	0.032	0.028	0.074	-0.010	-0.001	0.003	0.020	0.022	0.023	-0.048	0.053	0.147	0.427	0.512	0.477	0.285	0.631	1.765	4.520	10.33	17.19	27.20	28.76	29.77	13.36	4.554	0.051	-0.239	-0.285	-0.268	-0.303	-0.350	-0.322	-0.312	-0.404
275.0	5.596	4.850	0.693	6.951	22.08	73.20	144.8	152.6	418.6	 1297	 3893	 6185	 1000	42.00	4.999	2.929	2.056	1.664	1.076	1.067	0.886	1.050	0.905	0.678	1.025	0.943	0.755	0.638	0.747	0.619	0.519	0.518	0.462	0.466	0.378	0.343	0.377	0.211	-0.013	0.063	-0.033	0.045	-0.014	0.002	0.093	0.063	0.081	0.034	0.004	-0.013	0.040	0.049	-0.031	-0.086	0.071	0.184	0.477	0.751	0.620	0.517	0.984	2.217	3.766	6.363	10.55	25.11	45.30	48.36	20.49	3.909	-0.172	-0.260	-0.254	-0.326	-0.341	-0.363	-0.363
280.0	26.38	22.61	10.84	6.519	8.955	29.05	112.8	156.6	145.7	331.2	 1335	 5292	 5594	767.0	20.64	4.832	3.031	2.167	1.655	1.300	1.111	1.076	1.052	0.812	0.795	1.064	0.687	0.625	0.771	0.716	0.665	0.526	0.476	0.608	0.494	0.493	0.400	0.190	0.154	0.044	0.140	0.104	0.078	-0.032	0.134	0.091	0.135	0.079	0.092	-0.023	0.035	-0.055	-0.038	-0.032	-0.053	0.001	0.099	0.424	0.741	0.860	0.456	0.548	0.905	1.440	2.405	6.624	18.70	40.30	54.29	29.39	14.56	1.067	-0.221	-0.321	-0.315	-0.304	-0.271
285.0	64.88	51.05	30.71	17.44	12.90	21.36	60.66	162.3	164.4	148.6	380.5	 1974	 5597	 5041	101.7	9.870	4.181	3.239	1.875	1.686	1.513	1.169	0.905	0.839	0.767	1.254	0.707	0.975	0.745	0.769	0.618	0.740	0.811	0.800	0.607	0.612	0.489	0.276	0.220	0.145	0.085	0.138	0.219	0.070	0.126	0.206	0.270	0.205	0.121	0.074	0.136	0.075	-0.023	-0.023	-0.047	0.013	-0.016	0.135	0.321	0.861	1.078	0.800	0.436	0.498	0.731	1.697	4.569	12.01	27.74	46.78	55.82	25.38	6.901	-0.066	-0.308	-0.273	-0.288
290.0	135.5	130.5	90.26	66.18	45.38	38.76	54.10	112.4	214.2	252.9	263.4	606.6	 1935	 4279	 4924	 2030	32.27	4.903	3.022	2.232	1.949	1.563	1.309	1.242	0.968	1.244	0.997	0.986	0.851	0.777	0.819	0.673	0.834	0.940	1.074	0.874	0.769	0.589	0.329	0.294	0.228	0.239	0.278	0.263	0.339	0.421	0.424	0.346	0.341	0.371	0.214	0.283	0.178	0.148	0.086	-0.005	0.099	0.162	0.189	0.431	0.791	1.080	1.307	1.166	1.018	1.131	1.729	3.425	7.206	13.89	26.08	37.04	35.50	39.14	15.41	5.627	-0.070
295.0	240.1	245.4	181.7	139.7	95.88	73.81	77.61	107.6	186.7	359.3	416.8	407.1	630.6	 1191	 3078	 6549	 3173	38.45	5.451	3.361	2.871	2.154	1.705	1.457	1.602	1.333	1.216	1.119	1.105	0.888	0.888	0.720	1.019	1.124	1.381	1.358	1.223	0.942	0.666	0.486	0.472	0.450	0.401	0.437	0.625	0.710	0.662	0.828	0.722	0.716	0.553	0.565	0.394	0.301	0.251	0.185	0.259	0.226	0.261	0.320	0.625	0.990	1.206	1.705	2.280	2.131	2.000	2.185	2.963	4.152	6.747	9.014	12.32	29.36	55.00	63.12	23.17
300.0	307.0	310.8	255.2	201.3	133.8	101.7	102.3	127.3	190.8	361.6	533.7	495.3	398.2	425.4	975.1	 4157	 7472	553.4	23.96	5.044	3.612	3.000	2.244	1.967	1.670	1.687	1.336	1.329	1.255	1.278	0.773	0.823	1.058	1.222	1.419	1.590	1.348	1.056	0.678	0.731	0.645	0.540	0.462	0.511	0.747	0.752	0.873	0.980	0.956	0.852	0.725	0.837	0.702	0.556	0.419	0.315	0.317	0.277	0.423	0.382	0.679	0.845	1.117	1.597	2.212	2.830	2.985	2.387	2.418	2.275	2.773	2.883	3.290	7.811	21.45	48.93	70.38
305.0	317.2	383.0	314.3	247.4	176.2	131.4	125.4	147.6	207.3	360.6	531.9	617.9	433.6	287.9	309.4	 1346	 5226	 7046	449.0	11.23	4.871	3.655	2.779	2.248	1.809	1.802	1.752	1.472	1.323	1.401	0.824	0.881	1.450	1.415	1.623	1.611	1.470	1.266	0.884	0.812	0.673	0.656	0.538	0.679	0.776	0.821	0.958	1.093	1.039	0.986	0.895	1.046	0.882	0.734	0.507	0.571	0.441	0.542	0.487	0.621	0.820	1.089	1.376	1.609	2.117	2.817	3.528	3.469	2.929	2.231	2.080	1.640	1.409	2.100	5.164	14.14	33.20
310.0	361.3	418.7	347.7	301.0	219.9	163.7	162.8	188.7	244.8	394.7	518.2	624.0	555.2	333.5	187.6	359.7	 1531	 4431	 4976	 1813	27.42	5.637	4.000	3.143	2.468	2.380	2.174	1.762	1.438	1.382	1.056	1.026	1.327	1.488	1.613	1.603	1.647	1.405	1.053	0.921	0.809	0.806	0.631	0.695	0.868	0.931	1.073	1.194	1.181	1.053	1.087	1.201	1.049	0.930	0.752	0.723	0.603	0.718	0.732	0.815	1.097	1.307	1.540	1.898	2.282	2.700	3.203	3.608	3.697	3.096	2.688	1.857	1.141	0.998	1.358	3.323	7.832
315.0	390.7	459.0	384.3	351.7	266.4	218.7	227.9	256.1	313.1	473.8	558.8	605.1	556.3	456.6	229.6	162.5	397.8	 1087	 2550	 7195	 2997	35.10	6.044	4.165	3.144	2.946	2.575	1.842	1.855	1.491	1.324	1.081	1.278	1.503	1.728	1.692	1.406	1.489	1.122	0.991	0.828	0.895	0.715	0.717	0.981	1.055	1.104	1.215	1.304	1.071	1.249	1.421	1.186	1.179	0.980	0.846	1.022	1.126	0.985	1.323	1.393	1.635	1.910	2.260	2.738	3.018	3.300	3.474	3.556	3.584	3.597	2.812	1.629	1.065	0.878	1.084	2.015
320.0	422.6	499.1	421.7	383.7	299.9	264.5	285.0	329.2	379.8	537.3	605.4	618.8	531.7	467.6	328.6	159.2	161.9	303.5	732.7	 3762	 8325	 2218	23.44	5.467	4.113	3.472	2.884	2.357	2.157	1.730	1.460	1.260	1.355	1.480	1.646	1.691	1.671	1.574	1.233	1.013	0.808	0.938	1.038	0.840	1.020	1.206	1.337	1.293	1.312	1.341	1.192	1.393	1.382	1.371	1.245	1.140	1.267	1.288	1.482	1.737	2.025	2.242	2.445	2.586	2.808	3.507	3.715	3.543	3.591	3.403	3.500	3.125	2.509	1.516	0.995	0.775	0.825
325.0	443.2	519.2	441.6	405.3	330.0	312.1	343.4	385.7	435.9	600.2	650.1	641.9	525.1	432.8	373.5	230.2	139.2	146.9	225.5	 1087	 5087	 8336	382.4	13.25	5.172	4.057	3.353	2.701	2.293	2.099	1.661	1.548	1.503	1.725	1.633	1.756	1.610	1.451	1.219	0.982	0.888	0.913	1.011	0.914	0.910	1.124	1.367	1.334	1.369	1.421	1.336	1.571	1.349	1.424	1.379	1.294	1.446	1.740	1.589	1.939	2.367	2.457	2.790	2.841	3.471	3.574	3.744	3.680	3.627	3.408	3.087	2.798	2.531	2.465	1.807	1.032	0.740
330.0	441.7	522.4	455.3	428.3	365.7	360.2	403.9	449.0	503.2	667.5	701.3	660.3	531.5	411.8	334.7	303.4	217.2	142.7	132.6	295.0	 1364	 4613	 6862	 1564	24.55	6.282	4.738	3.586	2.575	2.350	1.925	1.655	1.661	1.736	1.879	1.705	1.628	1.489	1.199	0.993	1.039	0.996	1.034	1.040	1.070	1.091	1.221	1.417	1.430	1.372	1.315	1.602	1.574	1.614	1.451	1.485	1.689	2.021	2.063	2.306	2.653	2.772	2.996	3.278	3.645	3.930	3.852	3.825	3.697	3.421	3.025	2.640	2.358	2.195	2.090	1.941	1.487
335.0	454.8	540.3	459.4	446.9	387.2	394.2	451.0	499.4	552.3	724.0	738.4	684.4	545.8	414.1	322.2	280.5	301.1	215.5	134.3	134.5	340.5	 1079	 2766	 8160	 2686	32.54	6.861	4.797	3.709	2.870	2.255	1.997	1.953	1.657	1.719	1.753	1.641	1.526	1.251	1.098	0.993	1.102	1.000	0.955	1.129	1.308	1.226	1.490	1.420	1.406	1.442	1.593	1.623	1.620	1.578	1.540	1.763	2.342	2.331	2.647	3.046	3.247	3.368	3.702	3.953	4.055	3.980	3.948	3.719	3.378	2.977	2.729	2.398	2.146	1.874	1.854	1.926
340.0	427.8	518.5	446.9	436.3	398.2	413.1	470.9	524.0	565.3	741.6	736.9	678.8	534.9	415.8	327.6	272.5	283.5	290.7	168.3	108.7	121.3	270.9	704.0	 3982	 8878	 2157	24.03	5.964	4.874	3.452	2.760	1.989	2.283	1.711	1.767	1.828	1.617	1.569	1.202	1.247	0.948	1.110	1.059	0.971	1.070	1.183	1.192	1.555	1.462	1.403	1.432	1.677	1.575	1.689	1.709	1.665	1.840	2.342	2.326	2.727	3.149	3.345	3.352	3.818	3.993	3.954	4.181	4.001	3.658	3.336	3.056	3.157	2.411	2.083	1.815	1.664	1.748
345.0	437.5	500.0	442.0	423.6	393.9	402.5	472.6	524.4	560.6	731.2	727.5	653.9	527.2	414.4	328.9	275.7	259.4	291.4	233.0	119.0	80.19	98.15	185.7	 1060	 5459	 9267	345.1	13.82	5.505	4.301	2.965	2.231	2.298	1.902	1.881	1.855	1.886	1.608	1.313	1.078	0.984	1.043	0.993	1.095	1.008	1.243	1.279	1.453	1.362	1.401	1.263	1.679	1.552	1.643	1.682	1.707	2.004	2.389	2.409	2.819	3.252	3.466	3.252	3.600	3.734	4.098	4.017	3.985	3.483	3.560	3.149	2.857	2.566	2.230	2.014	1.589	1.552
350.0	403.6	467.3	413.8	405.3	367.9	385.8	451.3	492.2	532.1	698.1	687.2	626.4	507.0	405.7	327.8	281.2	251.2	246.4	252.4	186.7	95.03	70.75	77.49	262.5	 1394	 5192	 7305	 1533	23.94	5.591	4.093	2.972	2.781	2.147	2.039	1.814	1.917	1.539	1.323	1.070	0.993	0.929	0.889	1.117	1.081	1.221	1.274	1.404	1.473	1.357	1.297	1.634	1.588	1.496	1.592	1.639	1.946	2.243	2.445	2.699	2.933	3.289	3.310	3.541	3.711	3.872	3.550	3.661	3.439	3.314	2.995	2.790	2.456	2.120	1.880	1.776	1.670
355.0	369.3	427.2	379.7	374.5	348.8	359.7	426.1	454.8	494.8	648.6	640.7	590.2	477.3	385.5	326.1	282.8	254.1	234.0	212.3	213.7	158.3	81.42	62.42	89.81	330.5	 1189	 2826	 8096	 2570	31.50	5.966	3.957	3.325	2.531	2.159	1.909	1.761	1.511	1.373	1.079	0.961	0.802	0.822	1.021	1.092	1.117	1.309	1.342	1.311	1.314	1.237	1.554	1.444	1.480	1.566	1.520	1.894	2.208	2.261	2.611	2.695	2.821	3.227	3.460	3.567	3.715	3.334	3.464	3.339	3.117	2.835	2.809	2.432	2.221	1.889	1.745	1.863
360.0	326.4	402.9	359.5	354.9	331.5	337.7	399.0	427.8	459.5	601.9	609.7	559.7	449.3	369.7	319.4	282.6	254.4	229.9	200.5	184.5	194.4	113.7	65.43	55.77	97.08	281.8	685.6	 3898	 9148	 2061	22.38	4.947	4.264	2.975	2.281	2.194	1.849	1.524	1.280	1.137	0.996	0.768	0.774	0.938	1.076	1.060	1.117	1.334	1.261	1.267	1.187	1.581	1.426	1.531	1.480	1.449	1.760	2.008	2.059	2.202	2.624	2.695	2.821	3.120	3.246	3.645	3.003	3.132	2.970	2.916	2.798	2.479	2.369	2.051	2.095	2.049	1.865
365.0	327.8	384.9	344.8	334.7	312.1	324.4	377.9	395.9	423.9	565.4	575.3	527.0	429.5	355.5	313.0	283.1	255.7	230.7	200.5	168.0	179.5	163.9	82.70	54.00	48.87	82.86	169.4	997.0	 5749	 8585	328.7	11.40	5.185	3.701	2.542	2.524	2.246	1.591	1.532	1.170	1.049	0.887	0.787	0.982	1.072	1.091	1.032	1.239	1.021	1.174	1.074	1.503	1.419	1.414	1.272	1.427	1.744	1.703	2.031	2.102	2.284	2.488	2.693	2.937	3.078	3.452	2.999	2.965	2.868	2.811	2.862	2.435	2.258	2.146	2.014	2.028	1.707
370.0	297.6	353.6	319.5	317.2	287.8	299.8	341.5	357.2	386.6	508.0	520.2	490.2	404.6	339.5	303.8	276.8	255.1	234.1	203.7	168.0	153.8	166.4	141.5	77.07	48.13	46.85	59.80	239.9	 1457	 4955	 6856	 1302	21.43	5.426	3.805	3.012	2.487	1.813	1.456	1.239	1.066	0.869	0.869	0.865	1.014	1.116	1.035	1.103	1.054	1.150	1.069	1.435	1.254	1.303	1.240	1.373	1.478	1.581	1.822	1.739	2.022	2.160	2.434	2.631	2.890	3.170	2.757	2.813	2.514	2.675	2.463	2.241	2.162	2.031	1.947	1.952	1.871
375.0	266.4	324.3	297.4	293.6	273.1	285.1	315.5	327.0	346.3	463.0	474.9	456.1	382.5	328.8	294.4	275.1	255.6	239.3	210.8	177.4	156.5	144.2	156.6	135.6	68.99	50.99	44.71	78.83	343.4	 1133	 2827	 7296	 2268	27.01	6.449	4.777	3.853	2.347	1.730	1.242	1.171	0.904	0.853	0.975	0.966	0.970	1.025	1.065	1.088	1.123	1.001	1.211	1.236	1.271	1.231	1.255	1.464	1.457	1.619	1.771	1.700	1.971	2.025	2.334	2.483	2.641	2.688	2.511	2.545	2.600	2.440	2.246	2.074	1.883	1.852	2.120	1.818
380.0	258.5	316.1	276.1	287.1	269.0	267.7	298.9	309.3	325.3	435.3	455.2	438.1	374.4	322.5	294.0	277.1	255.7	238.2	216.2	188.6	166.3	146.6	144.4	165.4	110.0	66.72	50.62	52.10	103.7	273.0	686.6	 3735	 8883	 1725	20.29	7.447	5.386	3.573	2.071	1.531	1.228	0.998	0.851	1.105	1.024	1.016	0.984	1.101	1.000	1.088	1.081	1.128	1.218	1.327	1.162	1.216	1.532	1.342	1.446	1.658	1.640	1.791	2.122	2.150	2.164	2.654	2.534	2.245	2.402	2.251	2.322	2.190	2.213	1.813	1.837	2.053	1.775
385.0	261.4	301.3	272.1	281.3	262.5	262.8	291.1	291.4	313.7	422.5	452.0	443.1	380.1	329.6	304.8	282.4	268.0	243.6	223.0	200.0	180.2	164.3	149.7	162.4	162.4	103.4	74.30	65.03	63.30	95.58	181.8	977.1	 5915	 7381	268.4	17.75	10.03	5.610	2.921	1.854	1.313	1.196	0.785	1.026	0.886	1.017	1.035	1.028	1.102	1.015	0.998	1.126	1.221	1.268	1.108	1.192	1.412	1.352	1.530	1.556	1.687	1.717	1.984	1.966	2.193	2.494	2.411	2.517	2.492	2.234	2.256	2.353	2.144	2.302	1.959	1.913	1.935
390.0	253.5	295.1	283.9	294.0	281.6	288.7	320.6	338.8	369.1	517.3	566.7	567.7	487.9	424.1	390.9	350.5	313.9	283.7	262.1	246.0	239.6	231.4	225.6	223.4	234.1	238.7	190.1	158.5	142.4	135.1	141.5	304.2	 1594	 4552	 5631	 1133	91.66	18.64	7.668	3.445	1.744	1.336	1.145	1.098	1.031	1.199	1.013	1.098	1.140	1.127	1.217	1.445	1.344	1.344	1.353	1.189	1.526	1.534	1.478	1.744	1.824	1.932	2.050	2.234	2.500	2.845	2.831	2.879	2.923	2.849	2.723	2.832	2.710	2.652	2.284	2.214	2.360
395.0	307.0	334.2	343.7	369.3	363.1	381.4	447.8	507.4	590.5	848.6	952.8	971.7	843.5	725.2	656.2	560.2	458.3	389.8	361.8	360.1	382.8	403.5	413.3	409.8	404.4	499.5	499.6	370.6	355.4	337.6	320.1	328.5	631.5	 1262	 2655	 6808	 1882	112.8	22.88	7.869	3.359	2.117	1.440	1.452	1.333	1.375	1.314	1.573	1.626	1.379	1.517	1.980	1.938	1.856	1.892	1.813	2.111	2.089	2.109	2.353	2.596	2.544	2.890	3.236	3.477	3.990	4.334	4.439	4.578	4.395	4.381	4.375	4.238	4.008	3.453	3.595	3.105
400.0	359.6	422.0	434.9	484.0	495.6	550.5	650.1	749.9	906.6	 1342	 1503	 1443	 1243	 1066	924.4	792.0	652.9	540.5	502.2	511.9	521.3	635.7	695.5	745.9	757.8	856.9	887.2	822.8	750.6	699.2	652.7	588.6	723.5	750.2	 1011	 3944	 7312	 1420	59.37	15.50	5.586	3.043	2.248	1.861	1.699	1.882	1.896	2.017	2.151	1.845	2.060	2.693	2.516	2.702	2.601	2.445	2.965	2.835	2.957	3.491	3.615	3.711	4.253	4.531	5.234	6.086	6.513	6.988	7.002	6.935	6.801	6.590	6.388	5.943	5.192	4.968	4.348
405.0	442.3	530.5	543.0	615.6	650.7	750.9	896.8	 1057	 1309	 1880	 2231	 2282	 1955	 1684	 1482	 1203	905.4	722.6	664.2	703.8	793.2	915.1	 1026	 1123	 1163	 1307	 1343	 1315	 1223	 1135	 1065	950.6	 1105	910.3	834.9	 1526	 5252	 5870	246.5	27.55	8.328	4.370	3.099	2.555	2.302	2.316	2.322	2.698	2.687	2.565	2.594	3.519	3.412	3.245	3.499	3.641	3.993	4.038	4.185	4.540	4.955	5.269	5.930	6.494	7.220	8.799	8.940	9.367	9.257	9.429	9.895	9.343	9.008	8.178	7.514	6.829	6.198
410.0	523.3	645.7	669.7	758.2	807.8	947.9	 1154	 1380	 1718	 2557	 2928	 3028	 2619	 2249	 1966	 1575	 1152	898.3	829.4	884.3	 1025	 1189	 1349	 1504	 1559	 1760	 1808	 1774	 1704	 1581	 1477	 1330	 1538	 1228	 1025	 1065	 1886	 3972	 4346	992.5	19.92	6.338	4.227	3.397	2.811	2.857	2.745	3.148	3.223	3.271	3.411	4.347	4.249	4.584	4.617	4.640	5.054	5.060	5.297	5.798	6.284	6.672	7.388	7.920	9.541	11.09	11.95	12.44	12.21	12.32	12.31	11.87	11.74	10.58	9.868	8.663	7.474
415.0	535.3	650.8	675.5	783.3	846.8	987.2	 1208	 1452	 1815	 2716	 3113	 3213	 2776	 2380	 2087	 1662	 1208	940.7	868.8	931.2	 1091	 1263	 1436	 1599	 1660	 1870	 1912	 1860	 1800	 1717	 1581	 1412	 1638	 1298	 1062	960.1	982.5	 1183	 2156	 4644	 1399	19.52	4.965	3.819	3.537	3.146	2.959	3.410	3.470	3.609	3.461	4.368	4.454	4.616	5.013	4.820	5.492	5.329	5.790	5.907	6.779	6.959	7.444	8.728	9.771	11.63	12.26	12.85	12.76	12.88	12.88	12.35	12.24	11.08	10.42	9.256	8.127
420.0	524.4	625.8	664.4	775.7	831.8	959.9	 1176	 1418	 1766	 2633	 3025	 3131	 2700	 2309	 2024	 1612	 1175	918.0	851.1	917.9	 1067	 1241	 1409	 1564	 1612	 1816	 1851	 1787	 1717	 1649	 1530	 1356	 1567	 1242	 1014	884.2	733.3	526.0	616.0	 2655	 4508	240.6	12.15	4.296	3.446	3.328	2.926	3.287	3.347	3.422	3.505	4.150	4.638	4.669	4.618	4.939	5.210	5.322	5.548	5.974	6.297	6.841	7.497	8.302	9.539	10.78	12.00	12.37	12.51	12.63	12.63	12.31	11.98	11.00	10.01	9.004	7.993
425.0	515.0	613.7	642.3	755.6	819.3	943.6	 1153	 1393	 1741	 2587	 2997	 3096	 2664	 2286	 1996	 1592	 1158	903.8	847.0	910.5	 1060	 1235	 1398	 1552	 1597	 1796	 1820	 1757	 1679	 1596	 1511	 1332	 1528	 1211	992.6	851.3	661.4	368.0	232.4	726.1	 3314	 3633	199.3	5.758	3.594	3.446	3.270	3.239	3.466	3.481	3.541	4.241	4.364	4.659	4.835	4.750	5.250	5.121	5.426	5.947	6.198	6.962	7.360	8.232	9.393	10.76	11.73	12.17	12.50	12.47	12.48	11.62	11.28	10.67	10.12	9.042	7.510
430.0	537.3	618.8	671.7	778.3	848.5	985.8	 1204	 1468	 1835	 2729	 3139	 3244	 2788	 2379	 2087	 1651	 1204	937.4	872.6	943.9	 1109	 1289	 1465	 1629	 1681	 1884	 1918	 1850	 1766	 1666	 1577	 1421	 1612	 1272	 1043	896.9	688.0	355.1	153.5	193.8	883.7	 2591	 2693	787.2	12.55	3.988	3.516	3.546	3.587	3.459	3.550	4.431	4.737	4.738	4.917	4.842	5.251	5.364	5.645	6.076	6.440	7.202	7.684	8.694	9.954	11.54	12.18	12.53	12.99	12.91	12.86	12.59	11.84	11.18	10.47	9.220	7.947
435.0	695.0	622.8	688.4	798.1	862.3	 1027	 1249	 1499	 1884	 2825	 3253	 3338	 2881	 2462	 2154	 1691	 1234	952.7	890.6	963.0	 1141	 1328	 1508	 1681	 1743	 1954	 1997	 1929	 1846	 1733	 1631	 1480	 1707	 1338	 1095	945.3	725.4	369.4	143.2	76.74	208.1	594.8	 1519	 3936	 1202	14.07	3.858	3.926	3.678	3.500	3.684	4.644	4.818	4.783	4.982	5.085	5.402	5.601	5.694	6.363	6.602	7.204	7.866	8.823	9.911	11.80	12.45	13.39	13.53	13.49	13.17	12.68	12.82	11.54	10.75	9.466	8.163
440.0	932.0	617.5	668.6	777.6	834.1	988.1	 1210	 1460	 1832	 2750	 3138	 3238	 2778	 2376	 2074	 1631	 1187	923.5	858.3	928.4	 1098	 1285	 1465	 1629	 1688	 1900	 1939	 1871	 1784	 1680	 1578	 1426	 1663	 1312	 1066	921.0	710.3	361.5	136.7	49.91	57.62	138.7	380.7	 2508	 3873	209.1	7.182	4.062	3.747	3.639	3.692	4.496	4.711	4.826	4.837	4.708	5.408	5.303	5.490	6.153	6.573	6.972	7.702	8.723	9.532	11.48	12.10	12.85	13.13	12.58	12.68	12.52	11.98	11.03	10.01	8.984	7.683
445.0	 1252	630.6	616.3	716.0	775.7	920.2	 1120	 1343	 1706	 2516	 2884	 2976	 2551	 2191	 1909	 1506	 1098	851.5	790.8	863.2	 1019	 1183	 1347	 1498	 1550	 1738	 1775	 1715	 1628	 1537	 1443	 1297	 1512	 1210	979.3	845.5	650.6	331.5	125.5	41.36	23.03	36.21	90.18	702.4	 3221	 1796	26.18	4.896	3.962	3.670	3.523	4.249	4.319	4.459	4.571	4.334	4.755	5.164	4.989	5.527	5.976	6.210	6.867	7.944	8.900	10.32	11.16	11.47	11.62	11.94	11.26	11.71	10.90	10.17	9.336	7.914	6.907
450.0	 1348	976.7	551.7	603.4	657.6	782.9	955.0	 1150	 1440	 2134	 2459	 2526	 2165	 1851	 1619	 1278	937.7	727.7	685.0	743.1	877.7	 1017	 1155	 1280	 1320	 1471	 1502	 1444	 1372	 1289	 1207	 1084	 1256	 1005	829.3	708.4	540.4	274.7	104.8	33.97	14.04	12.98	23.94	160.6	874.0	 2141	 2344	656.1	10.12	3.506	3.396	3.914	3.832	3.749	3.753	3.882	4.065	4.202	4.319	4.903	4.973	5.320	5.843	6.693	7.784	9.125	9.416	9.842	9.787	10.19	9.700	9.722	9.282	8.520	7.945	6.923	6.116
455.0	822.6	 1502	641.8	520.1	569.7	658.9	814.6	967.6	 1212	 1799	 2075	 2125	 1825	 1562	 1364	 1081	797.8	622.9	582.3	635.5	746.3	866.0	975.6	 1086	 1115	 1244	 1259	 1212	 1151	 1084	 1010	904.8	 1039	823.5	687.7	598.4	454.0	225.7	86.96	28.39	11.10	7.539	8.978	38.96	197.4	495.4	 1392	 3178	924.9	10.75	3.398	3.496	3.304	3.308	3.204	3.349	3.490	3.473	3.760	4.236	4.263	4.604	5.279	5.745	6.597	7.359	7.908	8.451	8.479	8.330	8.365	8.093	8.208	7.307	6.708	5.800	5.118
460.0	473.3	 1554	911.7	480.8	509.7	596.7	727.0	882.7	 1097	 1613	 1858	 1902	 1633	 1396	 1225	967.3	706.7	559.3	521.6	570.6	669.6	778.8	878.3	975.5	999.5	 1117	 1131	 1085	 1032	968.0	902.8	808.8	928.1	736.7	608.6	538.6	414.4	203.1	77.59	25.62	9.705	6.012	5.223	11.56	46.44	113.5	346.1	 2010	 2943	159.8	6.359	3.546	3.048	2.998	3.124	3.185	3.263	3.185	3.428	3.613	3.934	4.411	4.814	4.966	5.724	6.524	6.997	7.353	7.702	7.425	7.562	6.989	6.824	6.278	6.025	5.198	4.419
465.0	315.6	 1118	 1410	513.5	462.1	545.1	661.6	803.9	991.8	 1462	 1684	 1730	 1483	 1271	 1120	884.9	645.2	507.7	477.0	521.9	611.9	707.6	799.2	885.4	912.0	 1016	 1025	992.2	937.4	882.7	824.3	735.2	844.3	667.9	549.0	483.5	382.2	192.2	71.98	24.16	9.302	5.314	4.224	5.391	13.02	27.85	80.24	554.1	 2480	 1384	122.2	4.077	2.992	3.170	2.940	3.059	3.011	3.136	3.082	3.406	3.682	3.738	4.169	4.537	5.333	6.038	6.433	6.667	6.855	6.559	6.924	6.571	6.191	5.867	5.127	4.511	4.241
470.0	243.3	553.0	 1447	917.4	418.3	469.3	567.3	679.9	845.5	 1255	 1438	 1473	 1258	 1077	949.1	750.9	549.5	433.1	407.2	443.1	518.5	600.9	679.5	752.0	776.0	861.0	871.9	843.6	795.3	748.5	696.9	623.4	716.1	565.9	466.4	407.9	320.9	171.9	66.88	21.65	8.320	4.850	3.990	3.780	5.357	8.429	20.25	126.5	676.2	 1572	 1693	613.1	9.449	2.931	2.678	2.776	2.481	2.666	2.611	2.810	3.006	3.089	3.557	4.009	4.502	5.215	5.379	5.692	5.679	5.667	5.779	5.522	5.199	4.909	4.534	3.907	3.407
475.0	201.1	295.6	792.2	 1498	527.2	378.7	460.8	552.5	686.7	 1008	 1159	 1179	 1007	867.9	763.8	603.0	446.0	350.9	329.9	362.3	422.8	488.6	549.8	604.7	625.0	691.1	699.9	673.5	636.6	599.4	554.4	498.2	570.6	452.5	372.4	323.1	251.4	137.3	61.40	21.44	7.646	4.279	3.410	3.133	3.379	3.632	6.409	30.15	152.5	360.7	920.8	 2451	195.5	10.98	2.424	2.375	2.113	2.150	2.138	2.342	2.371	2.373	2.780	3.436	3.447	4.033	4.357	4.609	4.626	4.642	4.473	4.188	4.205	4.007	3.647	3.240	2.610
480.0	195.5	208.5	374.5	 1478	934.0	332.3	389.6	461.8	571.1	847.9	974.2	988.1	838.6	728.0	637.1	502.4	373.2	295.4	279.2	302.2	356.5	407.7	460.7	508.9	523.5	578.8	584.6	557.5	529.4	495.5	459.6	409.9	473.4	374.2	307.3	266.0	206.4	110.2	54.46	23.54	8.361	4.126	3.041	2.664	2.541	2.697	3.289	8.467	35.77	82.27	227.1	 1398	 1585	177.7	5.444	2.047	2.005	1.987	1.832	1.857	1.901	2.062	2.505	2.554	2.932	3.437	3.696	3.702	3.900	3.957	3.925	3.824	3.335	3.419	3.174	2.473	2.093
485.0	175.4	181.8	220.2	975.6	 1450	391.9	338.3	393.8	485.6	713.4	819.8	835.2	714.5	618.7	538.7	426.5	319.0	254.4	241.6	260.2	303.2	348.3	394.9	434.9	440.8	490.2	491.0	469.8	443.9	416.8	385.6	345.2	397.1	314.2	258.1	222.4	172.1	90.13	42.89	24.74	11.06	4.372	2.991	2.604	2.281	2.420	2.493	3.498	9.433	20.04	52.52	365.9	 1482	 1527	25.80	2.836	1.889	1.690	1.548	1.840	1.715	1.812	1.869	2.100	2.329	3.029	3.055	3.066	3.260	3.421	3.091	3.156	2.800	2.731	2.554	2.305	1.739
490.0	138.6	163.9	167.7	410.3	 1397	972.3	301.9	326.2	396.7	578.8	670.5	680.3	586.6	503.0	438.3	347.2	262.6	208.9	197.6	214.2	251.1	286.9	324.2	353.1	359.2	397.6	400.9	383.3	361.3	338.1	313.1	280.5	320.7	252.2	208.6	181.0	138.9	72.49	31.51	18.51	14.43	7.111	3.514	2.537	2.219	2.058	2.174	2.387	3.541	5.964	13.20	83.67	393.9	 1152	 1461	526.3	9.684	1.736	1.586	1.566	1.435	1.573	1.623	1.890	2.015	2.407	2.388	2.708	2.557	2.532	2.476	2.515	2.321	2.101	1.922	1.765	1.515
495.0	97.31	147.3	136.2	205.4	704.4	 1622	389.2	266.4	319.0	467.7	546.2	548.7	467.7	405.2	354.8	280.8	211.3	170.0	161.1	173.2	203.0	233.9	260.6	285.1	290.0	322.0	323.0	306.9	290.8	271.9	253.5	224.4	257.8	203.9	169.1	144.9	112.7	58.38	24.66	11.97	11.61	11.06	5.742	2.553	2.256	1.985	2.047	2.071	2.133	2.632	4.290	20.07	89.00	263.7	787.0	 1843	215.9	11.07	1.581	1.286	1.386	1.387	1.347	1.509	1.572	1.950	1.974	2.114	2.094	2.106	2.116	1.851	1.827	1.637	1.668	1.410	1.128
500.0	75.90	127.4	125.9	140.0	299.8	 1521	 1011	238.3	268.1	398.1	461.3	460.3	392.7	341.2	302.0	239.0	178.8	144.1	136.1	145.7	172.1	196.9	220.4	239.4	245.5	269.4	271.1	258.5	247.2	229.0	214.8	190.1	215.6	172.6	141.7	122.6	95.13	50.12	20.81	9.414	7.436	10.91	8.490	3.417	2.288	1.837	1.711	1.689	1.882	1.816	2.156	5.706	20.98	60.11	192.4	 1039	 1685	192.5	5.321	1.349	1.284	1.113	1.214	1.301	1.505	1.538	1.550	1.699	1.792	1.647	1.823	1.598	1.405	1.488	1.386	1.137	0.989
505.0	62.60	101.6	125.1	114.0	150.1	933.5	 1572	308.8	228.8	341.9	389.3	391.3	334.3	288.6	252.5	203.8	151.7	122.5	115.2	124.9	146.9	168.0	188.1	201.8	208.8	229.8	230.9	220.3	207.9	195.7	181.3	159.8	182.7	145.6	120.3	103.4	80.86	43.36	18.16	8.014	5.276	7.777	9.665	5.559	2.421	1.911	1.782	1.663	1.702	1.604	1.639	2.492	5.856	14.47	44.28	270.8	 1284	 1474	28.17	2.330	1.249	1.019	0.929	1.239	1.168	1.325	1.308	1.414	1.500	1.413	1.313	1.362	1.236	1.193	1.060	0.993	0.747
510.0	48.73	69.93	98.80	99.40	103.7	344.1	 1388	962.0	216.4	267.5	307.9	308.8	262.9	227.6	196.7	160.6	119.9	97.44	91.29	100.4	116.8	132.8	147.5	159.4	163.8	181.0	181.6	172.3	163.9	151.6	141.2	126.1	143.4	113.7	94.02	80.84	62.98	33.80	14.56	6.527	4.129	4.391	7.165	8.073	4.466	2.118	1.672	1.638	1.521	1.496	1.521	1.611	2.225	4.206	10.84	61.56	332.0	958.4	 1235	454.9	9.693	1.067	0.829	0.932	0.983	1.075	1.061	1.110	1.128	1.065	0.973	1.001	0.942	0.887	0.714	0.567	0.545
515.0	28.36	49.73	71.52	91.58	74.97	137.8	600.6	 1488	468.5	205.1	233.1	235.8	200.6	171.6	151.8	120.8	91.92	74.77	69.75	78.01	89.22	101.9	111.4	121.2	123.3	135.3	135.8	129.7	122.8	113.8	104.5	94.48	107.1	85.66	70.57	61.19	47.58	25.79	11.77	5.435	3.351	2.998	3.521	6.785	7.076	3.631	1.849	1.502	1.353	1.378	1.336	1.395	1.374	1.749	3.211	14.46	74.75	216.7	549.2	 1425	220.1	11.05	0.802	0.900	0.770	0.867	0.878	0.746	0.852	0.722	0.765	0.662	0.658	0.541	0.347	0.246	0.285
520.0	18.91	38.66	51.35	81.62	68.78	80.25	219.9	 1264	967.4	192.1	189.4	190.1	163.8	138.8	121.8	98.08	73.64	62.34	58.46	63.58	72.60	82.72	91.51	97.59	100.5	109.9	109.1	104.3	97.29	91.41	85.49	75.92	85.90	68.24	56.12	49.56	38.36	21.07	9.837	4.660	3.016	2.386	2.635	4.318	7.184	5.294	2.462	1.567	1.347	1.342	1.229	1.249	1.061	1.084	1.438	3.888	17.34	49.02	130.9	757.5	 1260	185.1	3.787	0.719	0.733	0.625	0.635	0.680	0.595	0.594	0.591	0.518	0.410	0.277	0.256	0.260	0.180
525.0	18.21	29.35	36.10	66.98	66.25	60.08	102.5	704.5	 1382	246.4	157.9	158.8	134.3	114.3	101.3	80.97	62.17	50.95	48.96	52.37	60.35	67.25	74.70	80.55	82.60	88.68	90.59	85.82	80.43	74.57	69.80	61.70	70.57	55.25	45.61	40.48	31.28	17.33	8.040	4.027	2.679	2.196	2.187	2.607	5.368	6.354	3.538	1.685	1.323	1.181	1.057	1.079	0.911	0.872	0.926	1.437	4.378	11.58	30.04	192.6	868.7	 1056	28.64	1.306	0.677	0.535	0.576	0.557	0.574	0.456	0.352	0.323	0.264	0.174	0.204	0.149	0.132
530.0	13.91	19.60	25.91	42.98	59.46	52.14	60.64	239.4	 1098	 1058	168.4	122.9	104.2	88.47	78.88	65.05	49.26	40.40	39.15	41.35	47.58	52.80	58.64	63.17	64.04	70.07	70.65	66.50	62.47	58.41	54.41	48.11	54.21	43.75	35.63	31.31	24.38	13.46	6.491	3.363	2.433	2.134	1.832	1.910	2.734	5.009	5.301	2.841	1.383	1.149	0.944	0.908	0.863	0.868	0.801	0.745	1.430	2.990	7.268	43.48	218.8	648.5	793.1	304.7	8.796	0.460	0.456	0.500	0.379	0.295	0.261	0.217	0.226	0.104	0.092	0.070	-0.035
535.0	3.715	16.88	21.02	30.86	41.79	54.72	45.62	89.41	429.0	 1464	604.4	96.14	80.64	67.54	62.11	50.27	38.32	31.51	29.91	31.91	36.26	41.61	45.33	48.81	49.57	53.10	54.60	51.44	48.28	45.02	41.86	37.45	41.99	33.44	27.79	24.21	18.84	10.29	5.183	2.727	1.871	1.854	1.566	1.617	1.767	2.564	4.672	4.327	2.186	1.049	0.846	0.800	0.696	0.732	0.760	0.567	0.658	0.978	1.894	10.04	49.15	146.2	328.9	893.3	218.5	10.42	0.529	0.321	0.249	0.154	0.202	0.160	0.119	-0.047	0.050	-0.050	-0.089
540.0	2.578	10.42	17.60	19.36	35.13	53.52	40.05	49.74	146.7	 1100	 1197	124.0	66.59	55.60	51.48	41.10	31.79	26.67	25.10	26.05	30.04	33.87	37.32	40.36	40.29	44.50	44.36	41.96	39.77	37.04	34.13	30.73	34.23	27.44	23.01	19.83	15.84	8.737	4.462	2.480	1.813	1.511	1.423	1.316	1.431	1.540	3.028	4.553	3.207	1.380	0.809	0.643	0.573	0.486	0.583	0.601	0.483	0.396	0.692	2.528	11.29	32.92	77.43	446.1	866.0	179.3	3.547	0.311	0.237	0.138	0.186	0.141	0.022	-0.072	-0.062	-0.110	-0.119
545.0	6.542	7.179	15.63	16.70	24.42	45.32	38.97	36.30	65.69	556.3	 1468	353.0	54.78	48.30	41.70	34.49	26.64	22.42	20.98	21.94	24.71	28.99	31.48	33.82	34.21	36.99	37.09	35.41	32.65	30.54	28.22	25.63	28.40	22.65	19.45	16.70	12.92	7.438	3.850	2.409	1.619	1.371	1.370	1.136	1.246	1.333	1.664	3.433	4.034	2.097	0.907	0.557	0.558	0.299	0.369	0.556	0.377	0.296	0.347	0.791	2.722	7.570	17.60	111.7	563.7	771.5	29.17	1.049	0.213	0.191	0.062	-0.008	-0.063	-0.118	-0.162	0.010	-0.190
550.0	-2.244	3.927	10.66	13.17	15.66	30.66	40.52	29.48	38.13	182.1	961.6	944.6	91.11	37.07	33.02	26.31	20.59	17.28	16.20	17.20	19.72	22.32	24.19	26.45	26.39	28.83	28.81	27.27	25.50	23.83	22.09	19.92	22.46	17.34	14.75	12.91	10.04	5.784	3.067	2.045	1.390	1.188	1.113	1.048	1.131	1.084	1.145	1.768	3.255	2.977	1.517	0.641	0.422	0.320	0.273	0.325	0.406	0.403	0.176	0.357	0.744	1.819	4.183	25.20	140.4	445.3	566.4	128.9	8.051	0.228	0.025	-0.022	-0.064	-0.083	-0.190	-0.100	-0.200
555.0	-4.822	2.979	4.179	10.48	9.502	15.84	33.77	30.64	26.48	68.28	327.5	 1056	487.7	30.25	25.41	20.23	15.20	13.48	12.42	12.42	14.84	16.99	17.97	19.25	19.80	21.59	21.54	20.04	19.62	17.90	17.09	14.81	16.45	13.20	11.32	9.503	7.536	4.337	2.309	1.491	1.352	1.013	0.903	0.846	0.954	0.937	0.813	0.962	1.561	2.750	2.445	1.117	0.472	0.332	0.181	0.157	0.193	0.186	0.325	0.107	0.194	0.485	1.044	5.761	31.55	100.0	220.2	584.8	209.4	8.156	0.045	-0.008	-0.187	-0.180	-0.184	-0.185	-0.289
560.0	-11.30	-1.264	3.689	7.350	8.236	12.49	26.25	33.29	23.69	36.81	105.9	703.4	884.3	71.60	19.99	15.73	12.78	10.48	9.660	10.38	12.69	13.26	14.78	15.35	15.52	17.09	16.50	15.56	14.87	14.07	13.34	11.28	12.94	9.962	8.911	7.453	5.700	3.625	2.025	1.222	0.976	0.861	0.804	0.779	0.843	0.826	0.724	0.687	0.854	1.869	2.493	1.525	0.561	0.261	0.259	0.190	0.121	0.117	0.253	0.190	0.065	0.144	0.311	1.431	7.054	22.41	51.35	285.0	575.8	150.5	2.038	-0.029	-0.084	-0.223	-0.268	-0.228	-0.270
565.0	-9.433	-4.399	4.582	4.192	5.607	9.045	17.72	32.75	24.78	28.16	46.89	321.1	996.4	302.4	17.53	13.13	10.26	8.466	8.005	8.882	9.803	10.74	11.74	12.11	12.50	13.50	12.78	12.80	12.06	11.09	11.06	9.387	10.42	8.061	6.992	6.333	4.649	2.777	1.707	1.078	0.759	0.833	0.764	0.640	0.611	0.693	0.624	0.627	0.541	0.955	1.921	1.955	0.858	0.237	0.153	0.114	0.062	0.044	0.088	0.121	0.119	0.065	0.074	0.334	1.619	5.104	11.58	69.63	347.2	483.9	28.04	0.384	-0.011	-0.162	-0.284	-0.243	-0.293
570.0	-7.469	-2.840	1.207	2.442	4.607	6.059	11.61	25.61	27.43	24.98	30.73	100.8	591.8	732.9	63.57	10.24	7.796	6.369	5.994	6.548	7.223	7.658	8.679	9.246	9.034	9.915	9.389	9.352	8.940	8.035	7.753	6.701	7.427	5.807	5.038	4.340	3.698	2.081	1.259	0.813	0.627	0.548	0.518	0.459	0.485	0.467	0.427	0.468	0.447	0.500	0.899	1.531	1.268	0.444	0.171	0.045	0.006	-0.021	0.010	0.037	0.096	0.045	-0.044	0.048	0.345	1.112	2.564	15.54	84.98	261.8	279.2	116.6	6.016	-0.121	-0.223	-0.223	-0.285
575.0	-5.615	-0.727	2.494	4.394	2.407	4.394	6.300	15.22	29.31	25.61	25.81	40.85	192.1	700.3	492.7	11.36	5.984	4.757	4.311	4.316	5.071	5.650	6.019	6.735	6.198	6.881	6.862	6.571	6.286	5.545	5.320	4.780	5.403	4.481	3.615	3.149	2.889	1.695	0.943	0.664	0.520	0.302	0.403	0.344	0.337	0.272	0.286	0.272	0.237	0.278	0.419	0.736	1.209	0.881	0.327	-0.027	-0.019	-0.087	-0.043	-0.064	-0.033	-0.024	0.050	-0.055	0.033	0.217	0.523	3.405	19.01	58.53	112.9	328.8	155.5	4.132	-0.098	-0.217	-0.344
580.0	-2.613	2.061	4.310	3.398	3.020	3.735	6.568	10.90	25.71	29.26	24.61	26.56	59.21	425.8	796.7	62.75	4.676	3.889	3.171	3.673	3.890	4.319	4.665	5.213	4.942	5.582	5.510	5.231	5.042	4.271	4.014	3.781	4.403	3.489	2.962	2.443	2.039	1.224	0.723	0.403	0.412	0.215	0.240	0.185	0.226	0.216	0.193	0.208	0.199	0.255	0.201	0.297	0.740	0.991	0.503	0.044	-0.030	-0.164	-0.056	-0.149	-0.102	-0.025	-0.044	-0.024	-0.063	-0.015	0.077	0.700	4.149	13.00	26.34	154.0	318.7	31.31	0.970	-0.199	-0.334
585.0	-3.699	3.128	4.913	1.897	3.069	4.029	6.653	7.523	21.18	32.95	26.12	23.57	27.85	183.5	761.8	327.1	4.282	3.063	2.637	3.147	3.031	3.354	3.974	4.166	3.949	4.517	4.292	4.018	3.923	3.511	3.125	2.956	3.085	2.846	2.276	1.944	1.674	0.922	0.614	0.373	0.340	0.343	0.263	0.192	0.192	0.247	0.184	0.068	0.103	0.140	0.116	0.153	0.356	0.884	0.750	0.189	0.003	-0.097	-0.121	-0.144	-0.117	-0.019	-0.095	-0.004	-0.030	0.008	-0.005	0.134	0.898	2.851	5.808	37.70	189.8	242.7	24.63	-0.069	-0.299
590.0	-1.811	4.941	5.552	5.288	4.080	4.890	5.083	6.879	15.33	33.39	34.36	24.27	21.76	55.21	385.3	662.6	49.85	2.788	2.324	2.296	2.339	2.693	2.782	3.003	3.155	3.173	3.006	2.955	2.756	2.605	2.395	2.270	2.289	2.172	1.726	1.546	1.182	0.743	0.393	0.302	0.163	0.234	0.197	0.124	0.149	0.193	0.141	0.035	0.091	0.095	0.095	0.058	0.116	0.326	0.692	0.520	0.117	-0.054	-0.132	-0.141	-0.153	-0.130	-0.099	-0.015	-0.044	-0.045	-0.026	0.031	0.127	0.559	1.258	8.299	46.53	135.4	179.0	71.93	3.064
595.0	0.104	8.776	10.00	5.312	3.469	5.166	5.351	7.213	12.24	27.10	38.28	27.18	20.45	22.63	110.9	514.4	452.5	6.427	1.752	1.899	1.782	1.881	2.192	2.269	2.392	2.626	2.470	2.261	2.080	2.114	1.812	1.730	1.647	1.360	1.233	1.088	0.925	0.553	0.322	0.231	0.131	0.101	0.041	0.092	0.189	0.069	0.068	-0.015	0.051	0.031	0.120	-0.024	0.061	0.084	0.288	0.407	0.301	-0.031	-0.120	-0.122	-0.149	-0.193	-0.115	-0.074	-0.106	-0.037	-0.068	-0.041	-0.037	0.051	0.194	1.721	10.21	30.19	67.51	180.0	33.72
600.0	-0.143	8.958	9.911	7.008	3.999	4.151	5.702	7.363	12.04	22.81	38.34	30.05	21.33	16.45	31.24	269.3	686.8	53.03	1.347	1.585	1.669	1.556	1.993	1.811	2.075	1.927	2.108	1.900	1.680	1.547	1.622	1.486	1.436	1.316	1.018	0.975	0.776	0.404	0.245	0.150	0.145	0.030	-0.052	-0.026	0.033	0.048	0.109	0.005	0.095	0.015	0.077	-0.007	0.008	-0.038	0.029	0.225	0.247	0.075	-0.106	-0.176	-0.109	-0.168	-0.093	-0.127	-0.066	-0.065	0.019	-0.087	-0.013	-0.136	-0.060	0.251	2.202	6.475	15.58	85.53	162.7
605.0	-1.395	7.636	11.76	8.761	5.478	4.413	5.115	7.391	13.53	19.97	34.71	34.84	21.67	15.14	12.85	101.5	593.3	299.5	2.188	1.566	1.353	1.395	1.676	1.430	1.765	1.592	1.672	1.471	1.332	1.223	1.278	1.352	1.339	1.066	0.709	0.739	0.710	0.423	0.269	0.097	0.048	-0.021	0.002	0.067	-0.022	0.078	0.001	0.007	0.030	0.016	0.013	-0.047	-0.041	-0.110	-0.062	0.076	0.339	0.193	-0.053	-0.108	-0.190	-0.201	-0.129	-0.073	-0.092	-0.011	0.069	-0.048	-0.091	-0.134	-0.189	-0.076	0.375	1.204	3.278	20.93	101.8
610.0	-2.177	7.123	10.68	8.533	5.641	3.757	4.782	6.676	11.52	18.52	28.43	36.23	24.50	14.56	8.417	27.27	267.3	559.9	93.51	1.122	1.098	1.230	1.210	1.187	1.243	1.260	1.252	1.247	1.157	1.055	0.999	0.897	1.028	0.763	0.635	0.637	0.573	0.353	0.223	0.041	0.115	-0.044	-0.001	-0.009	0.019	-0.023	0.055	0.002	0.020	-0.015	-0.009	-0.054	-0.072	-0.076	-0.048	-0.072	0.081	0.158	0.028	-0.071	-0.176	-0.168	-0.125	-0.118	-0.088	-0.103	-0.057	0.008	-0.110	-0.167	-0.215	-0.185	-0.085	0.091	0.543	4.394	25.07
615.0	-0.974	5.280	8.820	6.945	6.229	4.630	4.821	5.765	11.49	16.86	24.10	32.74	27.43	15.34	7.065	8.810	71.00	386.5	410.6	6.212	1.030	0.976	0.874	1.019	1.074	0.878	0.981	0.895	0.899	0.848	0.802	0.762	0.810	0.712	0.578	0.593	0.466	0.278	0.163	0.021	0.004	0.001	-0.062	-0.028	-0.002	-0.073	0.002	-0.005	0.007	-0.008	-0.070	-0.053	-0.068	-0.138	-0.090	-0.169	-0.108	0.044	0.081	-0.069	-0.140	-0.173	-0.065	-0.118	-0.131	-0.126	-0.144	-0.050	-0.050	-0.147	-0.243	-0.138	-0.203	-0.236	-0.127	0.729	5.349
620.0	-5.332	6.968	8.135	9.654	5.885	4.590	5.736	6.278	10.67	17.67	23.74	28.72	29.15	16.50	7.843	4.999	17.96	180.1	577.8	50.14	1.016	0.841	0.998	0.869	0.848	0.971	0.798	0.713	0.690	0.704	0.617	0.671	0.513	0.535	0.522	0.394	0.438	0.192	0.061	-0.062	-0.031	-0.082	-0.031	-0.031	-0.012	-0.118	-0.041	-0.069	-0.032	0.045	-0.081	-0.119	-0.110	-0.183	-0.177	-0.168	-0.222	-0.049	0.073	0.040	-0.048	-0.223	-0.149	-0.174	-0.097	-0.106	-0.108	-0.142	-0.026	-0.111	-0.222	-0.207	-0.261	-0.266	-0.258	-0.015	0.923
625.0	-3.252	7.042	7.768	9.651	5.883	4.222	5.817	7.142	9.500	18.78	23.02	25.72	27.99	18.47	8.203	3.905	5.875	63.50	457.8	293.6	1.802	1.079	0.926	0.689	0.777	0.961	0.620	0.611	0.499	0.529	0.616	0.443	0.428	0.508	0.399	0.376	0.354	0.207	-0.004	-0.005	0.011	-0.119	-0.042	-0.094	-0.112	-0.084	0.001	-0.070	-0.075	0.021	-0.105	-0.128	-0.126	-0.178	-0.184	-0.179	-0.182	-0.105	-0.053	0.004	0.051	-0.174	-0.128	-0.221	-0.093	-0.161	-0.117	-0.150	-0.037	-0.118	-0.144	-0.264	-0.254	-0.287	-0.289	-0.223	0.013
630.0	0.969	6.649	7.298	8.816	6.300	6.525	6.599	8.367	10.90	18.49	21.98	24.84	23.87	20.75	8.950	4.448	3.407	16.78	184.9	487.0	94.45	1.125	0.821	0.774	0.584	0.725	0.655	0.603	0.491	0.502	0.498	0.379	0.420	0.354	0.357	0.270	0.208	0.195	-0.003	-0.002	-0.020	-0.117	-0.061	-0.093	-0.093	-0.091	-0.057	-0.074	-0.089	-0.008	-0.075	-0.134	-0.125	-0.116	-0.140	-0.198	-0.206	-0.211	-0.103	-0.091	0.046	-0.056	-0.156	-0.180	-0.103	-0.169	-0.076	-0.140	-0.114	-0.154	-0.175	-0.193	-0.249	-0.276	-0.260	-0.293	-0.218
635.0	-3.419	4.785	7.034	7.826	6.701	7.635	8.435	9.460	13.29	19.98	23.17	24.49	21.95	21.38	10.96	4.751	3.578	5.834	47.71	292.2	390.5	6.288	0.828	0.728	0.575	0.561	0.447	0.469	0.694	0.406	0.283	0.270	0.474	0.402	0.153	0.203	0.283	0.072	0.003	-0.030	-0.113	-0.043	-0.074	-0.127	-0.076	-0.124	-0.077	-0.098	-0.135	-0.036	-0.079	-0.073	-0.134	-0.155	-0.142	-0.160	-0.209	-0.188	-0.153	-0.238	-0.051	-0.013	-0.105	-0.160	-0.124	-0.119	-0.010	-0.180	-0.180	-0.124	-0.272	-0.161	-0.237	-0.235	-0.275	-0.346	-0.271
640.0	-5.249	4.307	7.516	6.296	5.276	8.896	8.353	11.42	13.97	19.37	23.22	22.92	19.53	17.85	13.37	5.626	4.122	3.826	12.55	121.4	509.2	45.94	0.842	0.640	0.740	0.481	0.431	0.442	0.565	0.363	0.348	0.357	0.416	0.281	0.171	0.236	0.192	0.024	0.027	0.018	-0.152	-0.020	-0.081	-0.143	-0.085	-0.142	-0.060	-0.062	-0.077	-0.007	-0.052	-0.112	-0.131	-0.158	-0.149	-0.164	-0.203	-0.179	-0.132	-0.138	-0.090	-0.110	-0.082	-0.184	-0.068	-0.111	-0.087	-0.202	-0.169	-0.148	-0.259	-0.191	-0.207	-0.268	-0.310	-0.375	-0.319
645.0	-3.300	7.300	8.284	8.064	6.741	8.995	8.762	12.03	13.85	19.18	22.53	21.42	18.55	15.87	13.94	6.709	4.130	3.569	5.036	38.90	376.4	267.3	1.971	0.513	0.643	0.599	0.473	0.394	0.397	0.303	0.211	0.336	0.375	0.265	0.329	0.224	0.271	-0.058	-0.071	-0.068	-0.148	-0.096	-0.086	-0.106	-0.086	-0.098	-0.039	-0.083	-0.074	0.011	-0.029	-0.122	-0.110	-0.170	-0.085	-0.148	-0.205	-0.136	-0.180	-0.140	-0.126	-0.169	-0.097	-0.127	-0.068	-0.222	-0.213	-0.165	-0.153	-0.111	-0.166	-0.252	-0.167	-0.357	-0.256	-0.306	-0.345
650.0	-4.228	6.668	7.628	6.515	6.863	8.376	9.179	11.19	14.13	20.46	22.10	20.40	17.09	13.85	13.25	8.124	4.432	3.378	3.385	10.78	176.9	451.6	24.15	0.586	0.667	0.606	0.323	0.452	0.289	0.391	0.185	0.242	0.313	0.129	0.192	0.228	0.171	-0.016	-0.058	0.003	-0.171	-0.098	-0.048	-0.079	-0.110	-0.109	-0.129	-0.031	-0.062	-0.002	-0.091	-0.125	-0.040	-0.176	-0.095	-0.124	-0.173	-0.176	-0.213	-0.158	-0.225	-0.175	-0.106	-0.090	-0.147	-0.232	-0.195	-0.188	-0.134	-0.174	-0.228	-0.282	-0.166	-0.272	-0.227	-0.275	-0.359
