Sample:	'1
File name:	城北污水厂总排口 5倍.FD3
Run date:	'15:25:55, 08/19/2024
Operator:	horiz
Comment:	'

Instrument
Model:	F-2700 FL Spectrophotometer
Serial number:	23B8-004
ROM Version:	4J14000 07

Instrument parameters
Measurement type:	3-D scan
Data mode:	Fluorescence
EX  Start WL:	220.0 nm
EX  End WL:	600.0 nm
EX Sampling interval:	5.0 nm
EM  Start WL:	230.0 nm
EM  End WL:	650.0 nm
EM Sampling interval:	5.0 nm
Scan speed:	12000 nm/min
EX Slit:	5.0 nm
EM Slit:	5.0 nm
PMT Voltage:	700 V
Response:	Auto 
Corrected spectra:	Off
Contour interval:	50.000

Peak integration
Integration method:	Rectangular
Sensitivity:	1
Threshold:	1.000

Peaks
No.	ApexEX/EM(nm)	Height(Data)
1	225.0/345.0	5699
2	225.0/490.0	291.9
3	225.0/575.0	100.3
4	230.0/500.0	279.9
5	235.0/255.0	357.9
6	235.0/510.0	221.5
7	240.0/265.0	421.9
8	240.0/525.0	187.2
9	245.0/270.0	413.2
10	245.0/540.0	170.0
11	250.0/275.0	531.7
12	250.0/550.0	144.4
13	255.0/280.0	635.2
14	255.0/510.0	1278
15	255.0/560.0	129.3
16	265.0/510.0	775.5
17	265.0/585.0	318.5
18	270.0/300.0	1358
19	275.0/305.0	1432
20	280.0/345.0	1677
21	280.0/625.0	77.98
22	285.0/640.0	62.59
23	315.0/355.0	514.8
24	320.0/360.0	492.2
25	325.0/370.0	422.4
26	330.0/375.0	382.6
27	335.0/380.0	348.8
28	345.0/395.0	240.6
29	350.0/400.0	228.5
30	360.0/415.0	170.6
31	365.0/420.0	161.7
32	375.0/435.0	109.8
33	380.0/440.0	104.8
34	385.0/445.0	89.07
35	395.0/460.0	65.56
36	400.0/465.0	56.28
37	410.0/480.0	38.98
38	415.0/485.0	34.49
39	425.0/500.0	23.73
40	430.0/505.0	21.49
41	440.0/520.0	14.57
42	445.0/525.0	12.42
43	455.0/345.0	14.89
44	455.0/540.0	8.640
45	470.0/560.0	4.232
46	485.0/265.0	2.478
47	495.0/270.0	2.330
48	505.0/275.0	3.538
49	510.0/280.0	3.861
50	520.0/285.0	4.260
51	530.0/290.0	4.147
52	540.0/295.0	5.685
53	545.0/300.0	6.826
54	555.0/305.0	6.746
55	560.0/310.0	5.513
56	560.0/345.0	7.160
57	575.0/340.0	7.086
58	585.0/325.0	6.204

Wavelength data
No.	EX/EM(nm)	Height(Data)	

Data points
	220.0	225.0	230.0	235.0	240.0	245.0	250.0	255.0	260.0	265.0	270.0	275.0	280.0	285.0	290.0	295.0	300.0	305.0	310.0	315.0	320.0	325.0	330.0	335.0	340.0	345.0	350.0	355.0	360.0	365.0	370.0	375.0	380.0	385.0	390.0	395.0	400.0	405.0	410.0	415.0	420.0	425.0	430.0	435.0	440.0	445.0	450.0	455.0	460.0	465.0	470.0	475.0	480.0	485.0	490.0	495.0	500.0	505.0	510.0	515.0	520.0	525.0	530.0	535.0	540.0	545.0	550.0	555.0	560.0	565.0	570.0	575.0	580.0	585.0	590.0	595.0	600.0
230.0	98.22	1075	2091	545.9	30.04	12.38	9.695	8.430	6.563	6.037	5.863	4.996	4.303	3.495	3.112	2.808	2.293	1.967	1.786	1.787	1.542	1.476	1.356	1.145	1.117	1.105	1.045	1.125	1.016	0.990	0.961	0.910	0.864	0.807	0.840	0.767	0.770	0.775	0.762	0.698	0.907	1.126	1.070	0.774	0.652	0.633	1.642	5.051	7.137	4.629	1.679	0.690	0.516	0.516	0.552	0.534	0.571	0.587	0.560	0.553	0.515	0.588	0.548	0.577	0.545	0.554	0.566	0.576	0.561	0.535	0.562	0.569	0.557	0.581	0.585	0.577	0.632
235.0	183.6	325.2	1287	1868	552.2	38.48	12.38	9.514	6.602	6.296	5.145	5.476	4.547	3.326	3.270	2.841	2.251	2.295	1.789	1.668	1.636	1.381	1.332	1.151	1.163	1.048	1.016	1.038	1.016	0.981	0.955	0.862	0.848	0.708	0.680	0.773	0.724	0.705	0.707	0.665	0.797	0.848	1.024	1.156	1.034	0.732	0.839	1.661	2.880	4.734	6.049	6.320	2.793	0.899	0.566	0.485	0.578	0.570	0.591	0.581	0.510	0.583	0.515	0.582	0.525	0.552	0.519	0.608	0.541	0.563	0.539	0.580	0.594	0.603	0.561	0.649	0.621
240.0	270.1	205.2	396.6	1595	2223	394.9	22.21	11.02	7.853	6.406	6.019	5.532	4.306	4.168	3.210	2.950	2.422	1.942	1.886	1.579	1.681	1.429	1.357	1.306	1.209	1.131	0.924	1.185	1.078	0.965	0.939	0.850	0.863	0.848	0.727	0.772	0.770	0.732	0.651	0.713	0.773	0.738	0.795	0.928	1.284	1.147	0.885	0.865	1.043	1.693	3.534	8.214	8.401	6.152	2.411	0.772	0.585	0.601	0.530	0.560	0.523	0.605	0.573	0.590	0.543	0.524	0.505	0.576	0.517	0.540	0.467	0.609	0.627	0.521	0.576	0.573	0.587
245.0	204.9	285.5	175.9	560.7	2365	1879	304.7	14.05	8.529	6.225	6.379	5.670	5.004	3.846	3.089	2.837	2.360	2.124	1.629	1.579	1.813	1.564	1.309	1.404	1.209	1.167	1.114	1.186	0.997	0.938	0.957	0.830	0.888	0.807	0.771	0.690	0.754	0.763	0.643	0.666	0.730	0.639	0.671	0.760	0.910	1.189	1.316	1.153	0.765	0.753	1.256	3.074	6.245	9.769	9.948	5.029	1.446	0.769	0.576	0.598	0.496	0.644	0.528	0.563	0.616	0.567	0.549	0.604	0.594	0.652	0.521	0.595	0.573	0.565	0.628	0.541	0.623
250.0	96.14	210.0	282.7	235.2	771.2	1833	2656	964.6	49.93	8.005	6.713	5.923	4.997	4.018	3.440	2.961	2.544	2.087	1.854	1.772	1.785	1.538	1.421	1.265	1.361	1.269	1.129	1.144	1.108	0.955	0.983	0.868	0.897	0.821	0.793	0.746	0.764	0.801	0.695	0.738	0.715	0.701	0.716	0.726	0.722	0.852	0.969	1.173	1.457	1.062	0.957	1.218	1.905	3.563	6.054	8.507	10.63	9.296	5.113	1.872	0.671	0.571	0.522	0.623	0.559	0.520	0.574	0.567	0.585	0.604	0.553	0.627	0.610	0.610	0.594	0.582	0.624
255.0	62.86	88.15	213.7	357.9	272.8	485.1	2022	3493	364.6	47.75	8.450	6.986	5.958	5.222	3.237	3.032	2.357	2.404	1.763	1.832	1.813	1.555	1.484	1.495	1.310	1.179	1.253	1.082	1.195	1.091	0.924	0.904	0.903	0.775	0.795	0.719	0.690	0.807	0.629	0.750	0.740	0.714	0.802	0.726	0.699	0.717	0.614	0.735	0.863	1.047	1.677	1.749	1.210	1.193	1.879	2.468	4.128	9.224	15.49	14.83	7.446	1.914	0.662	0.607	0.649	0.551	0.530	0.622	0.620	0.560	0.572	0.595	0.548	0.572	0.568	0.573	0.604
260.0	48.24	48.22	90.51	319.7	355.1	177.2	629.9	2995	2824	303.1	23.41	8.413	6.224	4.574	3.432	2.957	2.709	2.200	2.033	1.975	1.865	1.505	1.318	1.194	1.310	1.328	1.276	1.128	0.993	1.034	0.890	0.838	1.108	0.852	0.809	0.767	0.618	0.836	0.738	0.690	0.757	0.704	0.702	0.682	0.713	0.686	0.578	0.604	0.642	0.616	1.171	1.969	2.058	1.380	1.003	1.001	1.571	2.826	6.781	13.93	18.48	15.01	6.055	1.226	0.723	0.547	0.559	0.647	0.559	0.580	0.576	0.614	0.546	0.596	0.548	0.575	0.631
265.0	53.34	43.68	46.19	150.5	421.9	268.6	193.6	1010	3447	2437	231.3	13.74	6.984	5.389	4.133	3.345	2.719	2.253	2.257	2.068	1.781	1.590	1.407	1.370	1.298	1.306	1.105	1.129	1.047	0.994	1.017	1.018	0.982	0.995	0.905	0.856	0.765	0.759	0.713	0.804	0.705	0.730	0.707	0.617	0.686	0.715	0.602	0.617	0.592	0.527	0.631	1.147	1.895	2.478	1.726	1.023	0.859	1.200	2.197	4.351	9.949	18.79	21.25	13.29	4.023	0.754	0.617	0.608	0.619	0.568	0.617	0.592	0.694	0.664	0.576	0.558	0.645
270.0	67.13	55.74	38.48	58.77	205.4	413.2	320.7	292.3	1094	2868	3409	895.4	48.73	7.254	4.826	3.752	2.922	2.557	2.275	2.029	1.947	1.658	1.584	1.366	1.390	1.266	1.221	1.077	1.105	1.014	1.125	1.058	0.971	0.993	0.903	0.872	0.768	0.853	0.768	0.887	0.807	0.711	0.815	0.728	0.756	0.736	0.652	0.639	0.616	0.487	0.525	0.704	0.998	1.480	1.982	2.330	2.160	1.488	1.193	1.632	2.897	5.639	10.08	15.75	19.76	16.40	9.859	3.312	0.883	0.640	0.612	0.590	0.633	0.631	0.640	0.631	0.662
275.0	135.8	92.94	68.12	52.82	86.29	204.3	531.7	369.3	311.9	752.9	2458	5533	1224	48.41	6.529	4.339	3.574	2.695	2.519	2.243	1.976	1.884	1.541	1.609	1.447	1.431	1.280	1.101	1.189	1.062	1.097	1.042	0.976	0.971	0.960	0.950	1.030	0.980	0.867	0.907	0.796	0.806	0.923	0.820	0.861	0.797	0.713	0.661	0.597	0.548	0.569	0.715	0.704	0.816	1.002	1.301	2.500	3.538	2.765	1.411	1.304	1.922	2.932	4.219	6.252	11.22	22.26	24.75	14.33	3.400	0.910	0.604	0.651	0.616	0.683	0.558	0.733
280.0	235.4	202.1	146.5	78.08	70.69	105.8	334.2	635.2	291.1	270.0	776.6	3946	5291	869.5	20.46	5.329	4.084	2.951	2.618	2.494	1.977	1.933	1.655	1.689	1.471	1.429	1.164	1.099	1.144	1.013	0.968	1.090	0.925	1.048	1.096	1.098	1.197	1.092	1.048	0.939	1.026	0.931	1.039	1.028	1.031	1.065	1.008	0.875	0.833	0.683	0.598	0.775	0.665	0.694	0.792	0.918	1.360	2.472	3.861	3.343	1.976	1.277	1.493	1.764	2.268	3.467	7.971	16.93	25.07	23.72	10.60	1.962	0.655	0.593	0.677	0.614	0.623
285.0	428.2	380.9	276.5	146.4	85.58	98.80	175.6	551.4	631.5	281.0	369.0	1314	4783	4939	138.9	9.282	5.079	3.959	2.799	2.292	2.080	1.878	1.768	1.639	1.552	1.267	1.173	1.228	1.142	1.112	1.042	1.010	1.000	0.994	1.222	1.417	1.306	1.405	1.258	1.096	1.240	1.269	1.296	1.303	1.308	1.457	1.430	1.356	1.169	0.988	0.900	0.861	0.838	0.858	0.790	0.965	0.973	1.326	2.243	3.532	4.260	2.752	1.749	1.549	1.612	2.030	2.938	5.174	10.51	21.13	29.77	20.07	6.472	1.198	0.657	0.667	0.599
290.0	688.8	695.5	531.6	268.3	141.1	118.5	149.3	302.9	664.3	778.2	493.5	633.9	1569	4127	3870	530.1	34.71	4.672	3.543	2.906	2.556	2.109	1.885	1.663	1.529	1.492	1.157	1.281	1.221	1.174	1.130	1.107	1.003	1.172	1.528	1.735	1.800	1.823	1.757	1.427	1.529	1.515	1.621	1.699	1.902	1.987	1.988	2.195	1.841	1.460	1.155	1.170	1.015	0.948	0.927	1.008	1.015	1.122	1.364	1.894	2.792	3.689	4.147	3.724	2.801	2.298	2.443	2.918	4.041	6.556	11.68	16.61	20.22	19.83	12.88	5.111	1.331
295.0	950.4	974.6	795.8	405.2	197.1	151.9	168.6	257.6	443.2	905.5	1119	680.5	725.1	1136	2247	4718	776.0	30.78	4.749	3.672	3.057	2.544	2.091	1.750	1.777	1.486	1.293	1.226	1.285	1.306	1.028	1.050	0.962	1.285	1.646	2.078	2.162	2.151	1.999	1.806	1.768	1.760	1.909	1.974	2.349	2.502	2.700	2.707	2.421	1.956	1.530	1.539	1.195	1.045	1.046	1.076	1.174	1.118	1.429	1.659	1.913	2.257	3.114	4.908	5.685	4.867	3.497	2.951	3.119	3.480	4.274	4.864	5.892	8.974	18.42	26.21	19.32
300.0	1073	1086	912.0	467.1	238.1	184.1	205.6	293.3	442.3	719.2	1358	1038	631.8	493.3	667.9	3112	4466	540.1	12.50	4.665	3.631	2.681	2.473	1.913	1.898	1.606	1.341	1.386	1.167	1.256	1.178	0.987	0.959	1.291	1.684	2.172	2.321	2.175	2.093	1.992	1.712	1.821	2.049	2.175	2.574	2.889	2.880	3.479	2.654	2.099	1.707	1.583	1.261	1.218	1.139	1.028	1.341	1.506	1.610	1.913	2.048	2.273	2.725	3.498	4.847	6.826	6.009	4.203	3.255	3.051	2.706	2.294	2.396	2.974	5.831	13.13	24.77
305.0	1108	1166	908.2	514.0	266.6	210.6	252.9	329.0	462.9	667.9	1099	1432	777.7	393.0	278.1	923.6	3710	3514	86.21	7.649	3.939	3.141	2.670	2.110	2.018	1.577	1.494	1.480	1.294	1.300	1.217	1.030	1.096	1.287	1.664	2.148	2.494	2.282	2.155	2.020	1.874	2.117	2.195	2.425	2.578	2.998	2.973	3.585	2.705	2.134	1.844	1.666	1.375	1.287	1.339	1.280	1.484	1.550	1.760	1.989	2.386	2.425	2.686	3.124	3.921	4.973	6.472	6.746	4.489	3.436	2.617	1.960	1.844	1.706	2.193	3.970	8.667
310.0	1032	1133	900.9	500.9	274.0	223.6	265.8	353.8	474.5	648.9	862.4	1155	1149	547.1	228.7	302.1	1062	2705	2876	353.5	23.17	3.986	3.270	2.556	2.184	1.756	1.670	1.381	1.426	1.281	1.362	1.220	1.190	1.309	1.696	2.121	2.487	2.258	2.073	1.948	1.875	2.050	2.138	2.479	2.579	2.957	3.007	3.334	2.804	2.119	1.788	1.774	1.474	1.363	1.300	1.299	1.453	1.665	1.753	1.964	2.126	2.611	2.706	3.184	3.622	4.050	4.617	5.203	5.513	5.395	3.872	2.529	1.800	1.478	1.545	1.824	2.859
315.0	1266	1430	1023	524.3	288.1	244.8	290.9	381.0	509.1	668.3	846.3	966.9	1054	1029	427.2	265.3	344.4	700.6	1659	3471	534.7	20.68	4.114	3.110	2.626	1.990	1.809	1.453	1.570	1.430	1.331	1.139	1.160	1.501	1.574	2.042	2.362	2.335	2.149	2.036	1.860	2.313	2.244	2.613	3.146	3.614	3.577	3.873	2.976	2.310	1.887	1.821	1.475	1.523	1.379	1.377	1.499	1.827	1.843	2.060	2.231	2.369	2.697	3.221	3.597	4.043	3.890	4.115	4.338	4.788	5.543	5.398	3.444	2.546	1.945	1.782	2.136
320.0	1995	2116	1433	765.6	382.3	292.7	339.3	448.8	598.7	795.4	998.4	1119	1104	1241	916.2	457.4	333.0	298.9	501.8	2314	3493	392.3	10.42	3.792	2.762	2.201	1.953	1.816	1.587	1.467	1.321	1.420	1.102	1.334	1.393	1.950	2.371	2.353	2.297	2.156	2.298	2.634	2.795	3.786	4.487	5.352	5.941	5.946	4.415	3.228	2.509	2.403	1.857	1.679	1.481	1.489	1.659	1.873	2.204	2.399	2.487	2.998	3.016	3.755	4.091	4.467	4.509	4.850	4.927	4.735	5.072	6.063	6.144	4.562	3.173	2.714	2.482
325.0	2713	3342	2525	1363	625.8	390.2	403.6	523.9	705.0	940.7	1166	1318	1284	1265	1257	777.7	424.0	268.0	239.5	733.5	3077	2677	64.77	6.229	3.867	2.724	2.214	1.953	1.771	1.453	1.465	1.215	1.129	1.388	1.532	1.902	2.286	2.409	2.519	2.259	2.574	3.069	3.704	4.889	5.903	7.197	8.474	8.612	7.164	5.361	4.272	3.873	2.582	2.274	1.713	1.907	1.984	2.038	2.504	2.631	2.953	3.304	3.648	4.432	4.791	5.276	5.175	5.905	5.698	5.657	5.489	5.740	6.023	6.204	5.492	4.211	3.176
330.0	3276	4260	3570	2104	942.1	530.7	491.3	599.3	796.1	1024	1292	1471	1462	1363	1218	1096	658.4	329.1	225.6	294.3	941.1	2204	2505	274.5	19.21	3.745	2.540	2.025	1.845	1.605	1.571	1.552	1.313	1.331	1.584	1.851	2.181	2.366	2.434	2.593	2.859	3.305	4.099	5.452	6.994	9.062	10.52	11.26	9.762	7.723	6.364	5.735	3.766	2.939	2.337	2.152	2.337	2.435	2.747	2.971	3.219	3.519	4.062	4.890	5.203	5.523	5.658	6.269	6.260	6.591	6.385	6.118	6.041	5.605	5.801	5.785	5.357
335.0	3712	4831	4230	2542	1145	618.6	540.3	661.1	837.6	1086	1366	1536	1563	1452	1197	1015	888.3	478.6	259.5	232.2	345.6	606.5	1576	3198	443.4	14.48	3.721	2.457	2.278	1.921	1.600	1.542	1.376	1.478	1.480	1.758	2.205	2.638	2.501	2.887	3.165	3.970	4.778	6.038	7.537	10.05	11.82	12.82	11.43	9.458	7.668	7.005	4.575	3.430	2.779	2.360	2.552	2.606	2.874	3.139	3.419	3.717	4.336	5.118	5.250	6.121	5.916	6.694	6.260	6.762	6.455	6.589	6.086	5.809	5.577	5.157	5.600
340.0	3923	5292	4995	3080	1396	713.7	600.9	708.2	902.2	1139	1418	1602	1640	1544	1271	980.1	837.7	668.7	339.8	250.9	249.9	268.5	491.7	2299	3501	62.06	8.257	3.092	2.683	2.149	1.746	1.622	1.570	1.476	1.603	1.937	2.144	2.487	2.696	3.064	3.321	3.883	4.748	6.209	8.703	10.91	12.66	14.62	13.62	11.10	9.091	8.511	5.551	3.831	3.159	2.798	2.730	2.874	3.079	3.275	3.762	4.040	4.526	5.108	5.612	6.070	6.596	6.964	6.772	6.931	6.875	7.086	6.209	6.067	5.576	5.129	4.804
345.0	4030	5699	5433	3487	1599	832.9	656.1	754.5	926.2	1178	1438	1623	1677	1562	1313	979.7	716.1	690.9	487.7	287.9	256.1	224.9	228.2	724.1	3267	1956	54.48	4.224	3.000	2.499	1.803	1.601	1.553	1.363	1.528	1.755	2.139	2.321	2.511	2.898	3.306	3.923	4.906	6.510	8.457	11.14	12.89	14.89	14.73	11.99	10.40	9.561	6.427	4.249	3.534	3.031	3.080	3.123	3.246	3.335	3.922	4.229	4.610	4.935	5.618	6.136	6.477	6.927	7.160	7.051	7.103	6.969	6.705	6.167	5.953	5.227	4.557
350.0	3754	5297	5236	3436	1655	936.3	774.2	841.5	962.4	1165	1382	1535	1569	1470	1247	937.8	656.5	536.8	548.4	419.9	291.3	237.7	196.3	265.2	972.6	1734	2021	226.3	13.52	2.881	2.142	1.760	1.603	1.394	1.448	1.709	2.070	2.251	2.522	2.914	3.283	3.683	4.671	5.955	8.061	10.37	12.35	14.77	13.93	11.78	10.05	9.078	6.426	4.559	3.744	3.362	3.511	3.453	3.554	3.890	3.990	4.228	4.710	5.119	5.564	5.646	5.999	6.587	6.679	6.614	6.776	6.467	6.306	6.178	5.411	4.881	4.367
355.0	3374	4704	4843	3247	1622	967.6	825.0	856.1	958.2	1105	1292	1402	1438	1339	1143	880.7	613.3	459.0	435.7	514.8	397.6	267.6	209.2	182.6	284.9	440.8	1371	2164	346.1	9.153	2.698	2.095	1.816	1.471	1.425	1.765	1.973	2.110	2.420	2.512	3.017	3.477	4.282	5.332	7.445	9.518	11.13	13.09	12.71	11.28	9.149	8.679	6.331	4.626	3.707	3.434	3.402	3.590	3.827	3.912	3.863	3.993	4.711	5.003	5.193	5.346	5.678	6.005	6.095	5.826	5.923	6.102	5.766	5.693	5.117	4.326	4.249
360.0	3087	4288	4459	3049	1583	959.8	805.7	825.1	919.0	1033	1210	1300	1321	1226	1070	817.5	579.6	440.1	384.9	446.2	492.2	319.0	224.7	171.1	140.0	142.7	389.0	1690	2091	54.87	4.693	2.702	2.033	1.575	1.431	1.719	2.002	2.035	2.406	2.554	2.795	3.079	3.975	5.152	6.616	8.518	10.10	12.56	12.09	10.54	8.861	8.282	6.113	4.538	3.649	3.496	3.190	3.312	3.701	3.817	3.760	3.876	4.461	4.761	4.975	5.437	5.208	5.543	5.531	5.725	5.640	5.509	5.359	5.290	5.001	4.291	3.848
365.0	2761	3849	4002	2773	1496	937.7	778.3	798.1	870.2	962.6	1101	1187	1207	1118	977.9	760.1	554.6	429.1	373.3	372.1	466.4	409.5	247.7	177.4	119.2	82.01	119.9	526.3	2140	1566	43.81	3.519	2.188	1.851	1.619	1.621	1.829	1.982	2.393	2.422	2.470	2.974	3.893	4.558	5.776	7.853	9.114	11.03	10.84	9.682	8.216	7.560	5.952	4.485	3.608	3.587	3.255	3.321	3.574	3.623	3.802	3.767	3.915	4.294	4.490	4.773	5.039	4.941	5.113	5.324	5.190	4.948	4.992	4.920	4.538	4.269	3.605
370.0	2307	3272	3408	2408	1383	913.3	791.9	804.2	811.3	885.8	986.0	1041	1051	978.8	869.5	688.9	522.9	411.2	361.0	340.8	367.1	422.4	342.3	205.8	126.6	83.23	71.64	148.6	646.9	1551	1569	199.2	9.541	2.332	1.905	1.709	1.780	1.876	2.125	2.265	2.335	2.770	3.269	3.830	4.994	6.355	7.424	9.055	9.239	8.245	7.165	6.897	5.321	4.226	3.497	3.407	3.284	3.256	3.650	3.610	3.663	3.483	3.656	4.170	4.450	4.441	4.604	4.515	4.647	4.816	4.615	4.624	4.297	4.331	4.234	3.916	3.501
375.0	1907	2691	2809	2047	1236	868.9	748.7	746.5	746.2	788.6	859.7	887.6	893.2	840.6	748.1	605.5	481.2	389.5	350.0	330.2	324.3	334.8	382.6	291.3	151.5	101.5	74.55	73.76	171.0	386.0	1164	1993	272.3	7.150	2.277	1.973	1.819	1.952	2.018	2.264	2.204	2.299	2.705	3.366	4.287	5.271	6.143	7.766	7.697	6.982	5.907	6.135	4.651	3.977	3.428	3.379	3.272	3.238	3.201	3.378	3.254	3.306	3.420	3.832	3.740	3.949	3.964	4.009	4.108	4.044	4.145	3.918	3.996	3.835	3.706	3.527	3.242
380.0	1592	2224	2389	1768	1112	791.3	712.4	667.2	668.6	705.5	758.5	797.5	792.2	740.7	659.2	552.7	446.9	370.1	337.7	320.9	311.0	299.5	326.8	348.8	196.9	115.8	84.74	66.45	71.74	109.9	332.1	1630	1547	45.36	3.910	2.230	1.867	1.895	1.977	2.062	1.899	2.264	2.621	2.824	3.577	4.567	5.373	6.569	6.670	5.922	5.261	5.338	4.218	3.539	3.334	3.177	3.029	3.251	3.033	3.109	3.132	2.799	3.223	3.339	3.486	3.377	3.298	3.463	3.607	3.671	3.562	3.487	3.614	3.340	3.247	3.129	3.068
385.0	1417	1918	2065	1546	1019	756.1	660.0	620.6	618.0	648.4	684.1	702.5	705.9	656.5	594.1	500.7	417.5	357.7	328.7	308.0	298.5	281.3	276.9	315.0	268.0	141.1	96.33	71.49	56.73	52.88	95.09	510.6	1631	1344	34.31	2.909	2.036	2.038	1.920	1.841	2.034	2.109	2.292	2.800	3.103	4.036	4.753	5.831	5.590	5.069	4.418	4.736	3.656	3.280	3.119	2.933	2.925	2.852	2.898	2.964	2.784	2.856	2.832	2.976	3.298	2.976	3.309	3.292	3.485	3.223	3.135	3.099	3.273	3.261	2.992	2.770	2.859
390.0	1136	1551	1669	1293	902.0	715.0	630.7	591.5	571.5	580.9	597.1	610.0	605.9	564.7	520.8	446.5	383.3	333.5	312.5	296.7	287.7	270.5	254.9	248.7	264.6	217.9	125.3	83.70	63.51	48.29	46.22	132.8	494.4	1338	927.0	151.9	7.786	2.225	2.061	1.825	1.920	2.076	2.153	2.436	2.955	3.430	3.891	4.663	4.712	4.231	3.934	4.024	3.531	3.203	2.725	2.783	2.751	2.809	2.744	2.806	2.622	2.550	2.550	2.783	2.864	2.805	2.933	2.829	2.826	2.880	2.839	2.942	2.744	2.888	2.842	2.587	2.449
395.0	972.3	1270	1360	1090	808.8	667.7	597.5	558.9	533.7	516.2	524.1	523.4	532.4	499.4	452.0	397.3	347.9	312.9	293.8	285.5	274.5	263.0	245.9	224.8	212.1	240.6	194.5	106.9	75.78	56.90	44.13	51.70	125.9	329.2	849.0	1404	217.3	5.275	2.426	2.020	1.977	1.884	2.183	2.184	2.616	2.859	3.438	3.730	3.576	3.468	3.284	3.667	3.221	3.067	2.711	2.489	2.705	2.631	2.702	2.506	2.697	2.355	2.302	2.374	2.648	2.458	2.680	2.511	2.548	2.578	2.676	2.465	2.807	2.547	2.569	2.489	2.359
400.0	834.2	1117	1157	953.9	735.4	638.6	573.2	529.7	498.4	468.3	485.8	478.1	475.9	446.8	411.8	369.4	321.4	292.1	281.2	272.0	264.0	254.7	241.3	217.5	193.8	201.3	228.5	144.5	85.72	64.77	48.42	39.77	46.56	87.68	245.1	1161	1126	38.16	3.573	2.430	1.972	1.967	1.982	1.955	2.430	2.554	2.942	3.520	3.248	3.117	2.894	3.329	2.809	2.832	2.660	2.473	2.609	2.623	2.442	2.399	2.501	2.456	2.386	2.259	2.323	2.398	2.441	2.345	2.278	2.385	2.474	2.228	2.615	2.452	2.361	2.278	2.261
405.0	746.1	970.6	1013	870.9	686.5	598.8	545.9	510.0	476.0	434.9	446.1	441.5	433.1	414.0	387.6	342.4	306.6	278.9	267.0	259.8	252.4	244.0	233.8	210.6	189.0	174.8	202.9	194.4	108.5	69.25	54.59	40.58	33.36	35.56	67.32	365.1	1186	860.7	30.73	2.686	2.025	1.893	1.788	2.020	2.133	2.218	2.603	3.007	3.041	2.760	2.745	2.899	2.537	2.864	2.470	2.436	2.456	2.395	2.367	2.173	2.343	2.346	2.292	2.148	2.260	2.120	2.135	2.330	2.178	2.230	2.396	2.122	2.252	2.303	2.085	2.161	2.262
410.0	680.6	788.7	852.5	755.9	627.7	570.2	532.5	502.5	447.4	406.0	407.1	400.1	394.1	373.4	351.5	314.3	284.0	262.3	253.7	244.5	236.3	233.5	223.1	204.9	186.8	165.5	163.5	184.4	163.4	95.33	62.81	46.39	34.84	28.21	29.58	93.83	360.0	882.4	765.3	137.5	6.610	2.000	1.825	1.851	2.115	2.089	2.405	2.576	2.685	2.453	2.379	2.676	2.379	2.519	2.372	2.139	2.333	2.360	2.338	2.195	2.233	2.202	2.252	2.042	2.118	2.094	2.020	2.107	2.056	2.194	2.193	2.062	1.995	1.933	2.125	2.013	2.050
415.0	593.3	687.7	752.6	679.6	574.7	533.3	508.7	488.1	427.8	385.6	370.0	361.4	356.6	339.1	315.8	290.6	260.7	244.8	235.3	229.6	220.2	218.4	210.4	197.5	179.6	160.5	149.7	144.1	170.6	144.5	77.75	52.32	38.92	30.40	24.17	33.76	89.83	217.9	679.4	1008	189.1	4.624	1.987	2.082	2.006	2.036	2.203	2.334	2.430	2.205	2.080	2.512	2.272	2.279	2.154	2.096	2.371	2.523	2.411	2.448	2.242	2.103	1.884	2.061	1.976	1.935	1.979	1.972	2.007	2.016	1.988	2.076	1.857	1.965	1.867	1.878	1.920
420.0	558.8	628.2	673.9	616.0	530.9	505.8	496.1	482.4	428.5	372.6	349.5	332.8	327.5	313.0	291.1	273.3	246.8	230.8	221.7	217.1	209.7	206.7	202.1	188.0	172.8	158.3	144.6	130.5	139.9	161.7	107.3	58.56	43.29	32.39	25.54	22.29	30.64	57.06	192.6	815.1	862.0	35.10	3.095	2.038	1.975	2.022	2.016	2.113	2.113	2.179	2.064	2.405	2.196	2.189	2.112	2.085	2.213	2.460	2.232	2.253	2.184	1.942	1.884	1.805	2.032	1.990	1.895	1.951	1.926	1.960	1.941	1.844	1.735	1.922	1.945	1.773	1.974
425.0	520.9	577.9	609.5	573.4	508.8	480.4	490.1	477.6	418.8	357.2	332.6	317.0	309.3	297.6	273.8	257.2	232.3	218.2	208.5	204.1	197.2	194.8	192.7	182.4	170.1	155.5	141.5	127.7	119.6	141.8	138.4	76.12	46.52	35.11	27.21	21.88	19.60	21.91	50.86	252.3	856.1	675.5	28.56	2.437	2.085	2.015	2.028	2.114	2.130	1.856	1.780	2.198	2.106	2.163	2.068	2.073	2.276	2.373	2.136	2.151	2.145	1.914	1.707	1.909	1.883	1.919	1.867	1.727	1.799	1.768	1.743	1.776	1.843	1.673	1.595	1.744	1.769
430.0	625.1	536.8	555.8	523.1	470.3	468.7	488.5	468.3	415.8	342.0	317.5	297.0	289.5	278.2	260.4	241.5	219.8	204.4	196.7	189.2	185.0	182.5	179.4	172.1	162.1	150.8	138.7	124.8	113.8	111.4	127.2	108.8	62.93	39.96	30.54	24.33	19.30	16.00	19.69	63.36	250.7	640.6	559.0	130.3	9.228	2.210	2.107	2.143	2.110	1.718	1.666	2.070	2.027	2.085	2.028	2.003	2.247	2.267	2.213	2.223	2.038	2.007	1.862	1.841	1.830	1.671	1.842	1.729	1.689	1.700	1.661	1.764	1.722	1.754	1.743	1.654	1.809
435.0	1111	502.5	526.6	493.5	434.1	464.6	462.5	460.4	408.5	340.0	299.7	278.7	269.5	257.8	244.1	225.2	204.2	191.5	184.5	175.6	172.6	168.3	166.9	161.1	154.9	143.5	134.1	121.0	110.5	100.3	98.57	109.8	94.54	50.14	33.98	26.76	21.01	17.21	14.98	22.12	62.15	155.1	438.5	863.7	222.5	6.568	2.272	1.923	1.958	1.723	1.669	2.005	1.921	2.146	1.977	1.977	2.193	2.215	2.277	2.293	2.113	2.011	1.986	1.829	1.693	1.574	1.717	1.642	1.645	1.617	1.570	1.577	1.597	1.650	1.687	1.456	1.686
440.0	1655	598.7	487.5	460.0	424.7	436.5	465.9	460.9	404.6	325.0	295.2	270.5	254.4	243.1	231.6	213.1	198.0	183.0	175.0	167.2	162.4	160.1	156.8	157.6	147.2	139.1	128.9	119.1	108.3	99.29	88.42	90.73	104.8	70.66	38.10	29.44	22.78	18.43	15.27	13.38	20.83	40.62	122.2	641.4	1041	34.32	3.857	2.347	1.817	1.700	1.667	1.910	1.773	1.861	1.861	2.097	2.161	2.231	2.299	2.248	2.062	1.937	1.906	1.817	1.667	1.733	1.535	1.652	1.679	1.520	1.466	1.580	1.711	1.526	1.597	1.498	1.533
445.0	1870	929.7	457.5	431.9	417.2	418.9	445.5	449.4	395.1	315.1	283.4	259.8	245.5	231.6	216.6	201.7	186.7	174.8	167.1	158.4	155.2	152.8	149.5	149.0	141.1	134.3	125.2	116.2	107.4	97.44	84.54	76.49	88.36	89.07	48.31	31.72	24.79	19.87	17.35	13.18	12.95	15.35	33.01	190.1	915.1	678.6	28.44	2.860	1.958	1.762	1.810	1.821	1.761	1.906	1.985	1.982	2.249	2.156	2.240	2.108	1.949	1.926	1.842	1.629	1.663	1.652	1.652	1.571	1.760	1.484	1.392	1.494	1.562	1.571	1.461	1.544	1.624
450.0	1131	1568	600.7	398.1	381.0	397.0	427.8	421.9	371.1	301.2	263.1	241.6	228.0	216.1	200.3	187.8	170.9	161.0	155.0	146.6	141.1	139.0	136.5	136.0	130.5	123.8	117.2	110.8	102.8	93.87	83.03	71.33	68.37	78.30	71.37	41.75	27.66	21.69	18.06	15.01	12.82	11.43	13.74	47.82	254.8	560.6	991.9	128.5	7.979	1.883	1.632	1.815	1.753	1.887	1.890	1.930	2.017	2.029	2.107	2.008	1.969	1.837	1.711	1.648	1.602	1.682	1.493	1.529	1.404	1.539	1.449	1.412	1.366	1.445	1.430	1.398	1.489
455.0	530.2	1579	1155	382.8	347.1	374.5	402.1	405.5	352.5	281.0	245.4	220.4	205.1	203.2	182.7	172.3	158.5	146.0	139.7	132.6	126.5	124.1	124.9	121.2	117.6	113.1	109.1	104.7	97.02	88.21	79.95	68.80	60.71	57.84	68.08	62.12	35.35	24.36	19.82	16.44	14.54	11.76	10.15	16.47	61.61	132.9	555.1	750.3	182.3	8.448	1.751	1.880	1.728	1.813	1.838	1.787	1.864	2.045	2.096	1.972	1.840	1.902	1.581	1.591	1.584	1.545	1.475	1.265	1.317	1.531	1.473	1.502	1.421	1.343	1.363	1.306	1.368
460.0	374.6	1006	1707	486.0	322.4	338.7	379.3	376.8	332.0	268.3	224.9	204.9	193.9	184.5	172.9	159.5	148.1	135.3	128.6	120.7	116.0	115.0	115.5	112.9	106.9	104.8	103.0	96.36	91.37	84.53	77.16	66.12	57.32	51.30	53.09	65.56	46.08	27.51	20.96	17.73	14.83	12.87	9.877	9.685	18.75	34.05	140.5	459.0	683.7	141.6	4.801	1.977	1.696	1.677	1.792	1.771	1.846	1.934	2.005	1.831	1.683	1.725	1.589	1.488	1.663	1.431	1.422	1.444	1.313	1.450	1.358	1.348	1.420	1.247	1.326	1.316	1.338
465.0	316.9	535.4	1711	843.5	308.3	319.1	353.5	354.0	318.6	252.2	214.8	197.4	184.8	174.1	161.8	149.7	137.9	125.6	119.6	113.5	108.4	107.5	106.6	104.2	100.1	96.99	94.91	88.35	86.16	79.64	73.92	63.53	55.44	48.40	44.42	53.59	56.28	34.74	22.34	18.41	15.36	12.69	10.58	8.948	9.608	11.86	35.27	123.5	520.2	618.2	25.16	3.142	1.773	1.626	1.693	1.637	1.742	1.963	1.885	1.965	1.777	1.523	1.617	1.358	1.400	1.293	1.319	1.460	1.312	1.490	1.297	1.269	1.285	1.337	1.249	1.231	1.263
470.0	332.5	338.0	1000	1448	445.6	290.6	324.6	327.8	291.1	234.3	200.2	175.3	162.8	156.3	143.4	132.1	124.0	114.4	107.7	100.6	96.72	94.75	91.42	92.40	89.75	86.52	84.71	80.66	77.56	72.08	66.83	58.30	51.83	45.12	40.15	39.71	46.66	44.81	28.44	19.30	15.68	13.04	10.80	9.292	7.914	7.020	11.67	30.75	137.0	395.5	453.3	127.9	9.868	1.808	1.676	1.620	1.733	1.825	1.790	1.721	1.640	1.548	1.538	1.449	1.421	1.296	1.258	1.254	1.167	1.269	1.187	1.206	1.135	1.243	1.282	1.174	1.243
475.0	357.9	273.5	438.9	1317	1010	277.6	288.6	293.8	261.3	236.5	177.5	156.6	146.6	136.7	125.9	116.4	108.1	101.2	95.15	89.69	83.66	82.49	81.79	80.17	78.40	76.52	73.49	72.15	69.09	64.44	60.99	53.66	47.42	41.73	36.47	34.40	33.22	39.96	38.74	23.60	15.95	13.12	10.79	9.472	7.980	6.259	6.249	10.17	33.14	91.35	184.8	491.6	195.4	13.14	1.803	1.642	1.628	1.582	1.687	1.681	1.522	1.463	1.435	1.474	1.457	1.183	1.124	1.180	1.149	1.093	1.093	1.098	1.109	1.242	1.069	1.154	1.182
480.0	336.9	255.8	273.1	802.7	1499	382.4	267.4	269.6	242.3	264.4	165.8	144.2	133.8	127.8	114.9	106.3	99.13	91.96	87.58	82.53	77.93	75.23	74.44	73.58	70.18	70.26	67.53	64.37	63.23	58.84	58.06	50.67	45.29	39.40	34.63	31.24	28.76	30.85	38.98	29.57	17.46	12.98	11.01	9.316	7.700	6.670	5.236	5.440	10.09	22.70	45.24	238.4	522.2	176.1	7.080	1.699	1.608	1.588	1.632	1.526	1.545	1.366	1.337	1.424	1.285	1.146	1.051	1.140	1.136	1.097	1.064	0.986	1.160	1.145	1.016	1.011	1.110
485.0	305.3	290.0	233.7	420.6	1498	642.9	249.4	249.9	221.0	304.4	158.2	132.8	122.9	116.6	107.0	99.14	92.56	85.65	81.19	75.93	71.72	68.95	68.58	66.58	66.35	65.56	61.74	61.57	59.13	56.24	53.71	47.16	41.59	37.76	33.16	29.74	26.68	25.49	32.71	34.49	22.29	13.40	10.52	9.122	7.682	6.870	5.421	4.398	4.931	7.338	12.21	60.94	322.2	515.6	31.68	3.962	1.659	1.535	1.626	1.636	1.554	1.291	1.236	1.423	1.244	1.111	1.037	1.022	1.055	1.076	1.144	1.012	1.066	1.104	1.104	1.024	1.015
490.0	241.4	291.9	228.6	243.1	875.5	1285	401.2	228.2	202.7	478.7	145.5	123.1	113.1	105.3	94.96	90.67	84.10	75.74	71.93	67.81	63.04	62.45	60.79	59.80	59.58	58.06	55.97	55.05	54.27	50.70	48.82	44.08	38.38	35.13	31.52	27.85	25.01	22.82	24.07	28.94	28.14	17.37	11.15	9.116	7.575	6.499	5.681	4.768	3.914	4.103	4.969	15.79	81.27	259.6	417.7	244.9	13.66	1.801	1.552	1.497	1.463	1.216	1.222	1.250	1.225	1.090	1.066	1.082	0.997	1.052	1.095	1.011	1.020	1.136	0.983	1.074	1.030
495.0	174.0	251.6	253.7	194.0	354.6	1189	1200	221.5	178.3	692.3	125.0	112.3	99.98	95.46	83.64	80.70	73.28	68.95	64.95	60.15	57.19	54.20	52.81	52.92	52.16	51.90	50.95	49.31	47.82	46.82	43.57	39.90	35.40	32.37	28.09	25.17	22.71	20.99	19.73	19.72	25.08	23.53	14.13	9.111	7.730	6.425	5.539	5.019	4.394	3.587	3.522	5.949	20.28	60.17	153.1	519.6	240.2	19.13	1.747	1.523	1.332	1.240	1.339	1.211	1.155	1.112	0.932	0.961	0.950	0.979	1.108	0.883	1.124	1.014	0.979	0.960	0.936
500.0	147.7	204.8	279.9	183.3	196.6	718.0	1854	320.0	166.5	755.7	114.9	100.2	93.43	84.25	78.60	73.28	66.35	63.28	58.73	53.45	50.66	49.13	48.33	48.04	46.62	46.67	45.40	43.89	42.53	41.39	39.94	36.36	32.82	29.80	26.18	23.58	21.56	19.52	17.68	16.48	18.92	23.73	18.90	10.32	7.238	6.532	5.512	4.814	4.554	3.701	3.204	3.345	6.568	15.51	37.02	218.3	502.1	218.6	10.87	1.384	1.439	1.337	1.186	1.094	1.127	0.998	0.969	1.005	0.841	0.914	0.943	0.977	1.011	0.974	0.940	0.872	0.934
505.0	150.7	165.3	259.5	186.8	152.5	349.6	1839	657.6	151.5	771.4	108.2	93.03	86.63	78.11	70.66	66.67	60.19	56.44	53.51	50.04	45.32	43.76	43.26	42.30	41.60	41.40	41.04	39.18	39.03	38.35	34.99	33.04	29.78	27.49	24.30	22.00	19.87	18.47	16.33	14.87	15.07	19.68	21.49	12.92	7.878	6.266	5.478	4.829	4.257	3.902	3.116	2.933	3.534	5.433	10.38	53.95	260.0	549.6	150.1	4.769	1.424	1.320	1.070	1.082	0.956	0.984	0.954	0.938	0.820	0.903	0.949	0.850	0.843	0.934	0.890	0.886	0.946
510.0	132.6	124.4	192.0	221.5	136.2	181.5	1000	1278	249.1	775.5	98.76	83.22	75.29	69.31	61.78	57.00	52.98	49.30	45.55	42.60	39.71	38.96	38.03	36.83	36.27	35.90	35.03	34.49	34.69	33.78	31.08	29.67	26.35	23.92	21.43	19.54	18.31	16.72	14.77	13.39	12.50	13.65	17.62	16.64	10.44	6.653	5.326	4.545	4.000	3.914	3.343	3.198	2.905	3.372	4.265	14.07	63.68	244.7	364.9	144.6	14.03	1.553	1.063	1.090	0.954	0.913	0.928	0.930	0.847	0.878	0.869	0.888	0.862	0.867	0.891	0.854	0.827
515.0	120.7	117.7	139.0	204.5	151.2	128.8	358.5	1247	754.3	735.6	83.86	71.68	65.00	61.83	54.80	50.16	45.84	42.47	38.97	36.95	34.16	33.60	32.76	31.41	32.41	31.10	30.53	30.12	30.54	29.23	27.44	25.52	22.69	20.94	18.86	17.33	15.97	14.62	13.37	12.26	10.95	10.26	11.40	15.37	13.92	8.051	5.133	4.470	4.123	3.675	3.143	3.434	2.892	2.660	2.999	5.037	16.01	56.21	119.2	349.3	238.3	17.25	1.219	1.133	0.949	0.842	0.868	0.873	0.801	0.891	0.861	0.839	0.922	0.791	0.759	0.869	0.886
520.0	107.4	97.22	116.7	173.3	176.6	106.9	165.9	728.4	1290	783.4	74.46	63.19	58.12	53.91	47.48	44.69	40.75	38.20	34.75	32.37	31.32	29.50	29.20	28.34	27.72	26.96	26.34	25.99	26.79	24.65	23.87	22.80	20.36	18.71	16.88	16.52	14.46	13.23	11.79	11.02	10.10	8.894	8.843	11.26	14.57	11.04	5.796	4.379	3.902	3.261	3.238	3.490	3.180	2.554	2.702	2.825	5.130	14.04	28.80	143.3	424.7	183.3	9.196	1.087	0.941	0.837	0.859	0.864	0.872	0.885	0.813	0.863	0.844	0.773	0.791	0.815	0.876
525.0	95.00	88.55	96.85	127.9	187.2	113.5	115.9	325.1	1444	1018	68.48	60.47	53.54	49.03	43.86	39.53	35.74	35.05	30.96	28.80	27.39	26.30	25.70	25.67	25.85	24.65	24.06	23.46	23.66	22.71	21.46	20.28	18.28	16.95	14.92	14.66	13.28	12.16	10.35	10.20	8.965	8.397	7.510	8.270	12.22	12.42	7.643	4.459	3.495	3.138	2.945	3.097	3.273	2.810	2.511	2.280	2.671	4.774	8.004	35.41	204.8	371.1	119.1	3.511	1.080	0.788	0.862	0.775	0.839	0.746	0.796	0.817	0.865	0.768	0.764	0.800	0.801
530.0	90.49	85.31	84.82	93.00	165.5	137.5	94.03	143.1	818.8	1573	150.6	51.60	46.91	43.03	36.96	35.00	31.40	30.37	27.13	25.18	23.90	22.84	22.52	22.02	21.59	21.06	21.10	20.40	19.94	19.92	19.52	17.76	15.96	14.93	13.51	12.42	11.34	10.54	9.583	8.974	8.244	7.341	6.653	6.516	7.825	10.63	9.776	5.857	3.574	3.033	2.703	2.818	2.813	2.964	2.705	2.075	2.217	2.540	3.195	9.268	49.67	161.0	249.0	131.8	12.97	1.053	0.894	0.865	0.768	0.754	0.785	0.780	0.751	0.771	0.766	0.781	0.790
535.0	75.30	80.54	69.55	68.96	111.0	168.0	92.77	89.34	271.4	1598	565.6	50.62	40.24	37.59	32.22	30.07	27.14	25.28	23.33	21.55	20.81	19.69	18.71	18.54	18.13	18.18	17.82	17.35	16.87	16.60	16.25	14.88	13.66	13.26	11.46	10.65	10.17	9.019	8.315	7.623	6.878	6.430	5.834	5.314	5.334	6.755	9.368	8.060	4.294	2.946	2.479	2.577	2.371	2.448	2.588	2.256	2.032	1.896	2.005	3.267	12.10	36.96	79.44	246.4	199.0	14.27	1.116	0.903	0.799	0.673	0.775	0.881	0.784	0.765	0.695	0.815	0.861
540.0	75.72	71.69	66.19	58.55	78.29	170.0	112.3	74.96	109.6	1103	1047	96.70	36.45	33.01	28.37	26.20	23.98	22.23	20.37	18.47	17.79	17.31	17.14	16.43	15.51	15.67	15.08	14.60	15.45	15.20	14.31	12.87	12.27	10.83	10.02	9.217	8.799	8.079	7.581	6.772	5.947	5.922	5.131	4.742	4.664	4.860	6.724	8.640	5.690	2.931	2.428	2.281	2.310	2.094	2.179	2.595	2.185	1.617	1.678	1.857	3.841	9.404	19.11	96.19	285.9	140.3	6.894	0.892	0.712	0.751	0.823	0.775	0.783	0.742	0.713	0.707	0.838
545.0	85.22	70.32	61.29	53.63	58.52	126.5	131.8	66.29	68.05	685.6	1182	245.1	32.95	29.58	25.54	22.96	21.43	18.76	17.99	16.23	14.95	14.72	15.16	13.99	13.57	13.21	13.35	13.10	12.94	12.76	12.74	11.66	10.40	9.927	8.985	8.330	7.374	7.418	7.043	6.299	5.436	5.347	4.881	4.430	4.086	4.028	4.511	7.355	6.920	3.713	2.480	1.992	1.952	2.019	1.985	2.221	2.419	1.534	1.338	1.574	1.807	3.051	5.160	23.34	131.3	270.5	35.01	3.195	0.806	0.775	0.823	0.778	0.777	0.720	0.650	0.697	0.786
550.0	80.66	61.60	56.60	49.63	48.08	76.70	144.4	74.44	54.16	495.0	646.1	846.2	80.81	24.55	21.72	19.15	17.61	15.81	15.21	14.10	12.54	12.55	12.28	12.15	11.42	11.08	11.49	10.81	11.11	10.75	10.51	9.725	9.126	8.177	7.651	7.223	6.400	6.346	5.848	5.317	4.718	4.487	4.162	3.876	3.428	3.284	3.516	4.564	6.286	4.991	3.041	2.057	1.883	1.827	1.760	1.756	2.055	1.857	1.477	1.335	1.312	1.544	2.027	6.053	31.66	113.0	172.5	97.58	11.13	0.902	0.859	0.713	0.688	0.638	0.644	0.714	0.722
555.0	78.07	61.35	50.67	46.85	41.74	48.78	113.9	107.5	46.65	414.9	195.3	964.9	383.9	23.86	17.08	16.20	14.51	13.00	12.17	12.42	10.56	10.35	10.09	10.01	9.248	9.360	8.675	9.332	9.215	8.758	8.679	7.916	7.282	6.453	6.379	6.093	5.281	4.925	4.652	4.378	4.264	4.057	3.561	3.358	2.901	2.808	2.768	2.678	3.870	4.965	4.047	2.395	1.812	1.805	1.511	1.628	1.531	1.955	1.764	1.391	1.124	1.203	1.191	2.044	7.904	25.93	53.82	161.7	127.8	11.51	0.788	0.737	0.720	0.581	0.673	0.691	0.694
560.0	75.82	64.49	55.41	41.01	38.46	40.22	74.93	129.3	49.89	368.4	75.10	579.7	823.5	47.15	16.09	13.46	11.50	10.78	10.84	10.07	8.998	8.722	9.052	7.935	7.686	7.877	7.382	7.131	8.057	7.120	7.286	7.035	6.089	5.516	5.182	4.979	4.748	4.437	4.015	3.845	3.522	3.303	3.146	2.814	2.522	2.523	2.401	2.115	2.565	3.709	4.232	2.981	1.753	1.526	1.490	1.411	1.392	1.419	1.752	1.418	1.137	1.122	1.046	1.299	2.483	6.470	12.97	62.95	177.2	90.11	5.430	0.775	0.627	0.725	0.774	0.663	0.679
565.0	77.56	72.43	53.31	38.60	34.84	35.78	50.90	124.4	67.08	337.8	45.89	227.8	1042	156.0	13.84	12.57	10.21	9.893	9.069	8.799	8.039	7.327	7.854	6.993	6.862	6.905	6.516	6.361	6.716	6.371	6.270	5.678	5.163	4.943	4.391	4.605	4.097	3.831	3.528	3.396	3.269	2.744	2.855	2.582	2.313	2.257	1.921	1.985	1.998	2.564	3.924	3.221	1.966	1.354	1.325	1.320	1.285	1.328	1.566	1.736	1.156	1.102	0.927	1.031	1.264	2.123	3.630	15.48	80.26	165.4	34.51	2.064	0.723	0.700	0.706	0.645	0.655
570.0	88.70	75.67	61.72	41.26	32.65	29.67	37.12	87.98	102.6	306.4	42.67	85.56	625.5	666.0	38.79	10.38	9.046	8.533	7.450	7.074	6.533	6.318	6.415	5.878	5.409	5.717	5.478	5.365	5.195	5.293	5.222	4.797	4.445	4.302	3.770	3.716	3.516	3.217	3.099	2.866	2.747	2.400	2.452	2.234	2.137	1.917	1.769	1.789	1.705	1.665	2.423	3.064	2.557	1.570	1.348	1.184	1.161	1.225	1.175	1.354	1.398	1.197	0.923	0.895	1.013	1.134	1.571	4.201	19.54	69.44	123.2	62.67	7.537	0.854	0.714	0.707	0.694
575.0	99.55	100.3	65.85	45.57	31.45	30.81	32.35	53.51	119.3	297.8	46.29	54.10	194.5	871.1	149.6	9.474	8.007	6.943	6.692	5.752	5.172	5.310	4.956	5.045	4.640	5.055	4.225	4.669	4.268	4.365	4.239	4.207	3.680	3.587	3.007	3.256	2.922	2.765	2.639	2.556	2.243	2.059	2.013	1.892	1.837	1.731	1.605	1.589	1.437	1.313	1.503	2.065	2.724	2.128	1.282	1.168	1.097	1.172	1.006	1.047	1.164	1.432	1.229	0.976	0.927	1.010	0.973	1.568	5.097	16.14	38.82	102.7	74.59	6.752	0.719	0.659	0.657
580.0	108.9	98.43	78.89	45.70	31.39	30.47	28.34	38.93	102.6	306.5	51.20	47.85	73.12	541.9	476.0	19.60	7.480	6.235	5.393	5.161	4.728	4.499	4.746	4.254	4.055	4.111	3.771	4.147	3.814	3.813	3.806	3.631	3.099	3.144	2.860	2.778	2.489	2.394	2.290	2.216	2.067	1.976	1.796	1.582	1.589	1.578	1.460	1.533	1.300	1.214	1.225	1.451	2.328	2.304	1.620	1.092	1.027	1.072	0.933	0.990	0.906	1.357	1.342	0.939	0.944	0.951	0.916	1.032	1.800	4.280	9.500	40.65	108.0	35.14	3.055	0.741	0.648
585.0	116.8	99.42	84.12	50.00	30.35	27.41	24.82	32.34	71.83	318.5	60.83	50.61	45.28	207.0	648.2	82.59	6.417	5.467	5.291	4.668	4.365	4.275	3.967	3.519	3.471	3.325	3.230	3.444	3.161	3.534	3.235	3.149	2.807	2.872	2.496	2.427	2.291	2.287	2.397	2.105	1.653	1.911	1.585	1.610	1.519	1.438	1.384	1.377	1.263	1.067	1.099	1.256	1.729	2.157	1.883	1.174	1.033	0.999	0.840	0.837	0.786	1.061	1.310	1.145	0.954	0.903	0.827	0.921	1.128	1.632	2.716	10.04	50.94	98.85	28.32	1.435	0.720
590.0	121.8	104.1	87.33	51.98	31.11	26.76	27.21	30.23	50.80	289.3	82.78	53.89	42.58	67.82	390.1	365.7	19.24	4.957	4.735	4.133	3.696	3.546	3.363	3.139	2.978	2.873	2.769	3.092	2.927	3.096	2.679	2.671	2.472	2.400	2.167	1.999	1.967	1.837	1.958	1.644	1.609	1.537	1.447	1.420	1.343	1.359	1.315	1.323	1.153	1.047	0.964	1.025	1.133	1.623	1.993	1.421	1.017	0.900	0.781	0.848	0.801	0.852	0.952	1.195	1.097	0.839	0.866	0.917	0.865	1.004	1.298	2.787	12.55	42.88	69.30	40.00	5.474
595.0	126.9	106.2	82.73	49.37	32.42	25.11	26.69	30.29	39.19	243.7	111.5	59.20	43.76	34.10	115.6	499.6	99.18	5.252	3.712	3.486	3.376	2.942	3.134	2.751	2.614	2.591	2.383	2.643	2.610	2.578	2.378	2.115	2.092	1.960	1.890	1.743	1.805	1.652	1.533	1.549	1.348	1.381	1.384	1.263	1.306	1.219	1.180	1.017	1.074	0.860	0.888	0.846	0.912	1.037	1.591	1.646	1.275	0.929	0.843	0.806	0.862	0.829	0.874	1.064	1.265	1.002	0.896	1.010	0.878	0.747	0.901	1.201	3.352	10.12	22.00	60.21	37.27
600.0	113.0	103.8	77.67	49.75	33.40	26.56	27.20	29.06	34.59	216.9	116.3	70.62	43.25	26.44	36.81	329.2	324.1	9.149	3.626	3.273	2.926	2.842	2.631	2.253	2.455	2.298	2.168	2.164	2.259	2.332	2.159	2.058	1.735	1.743	1.683	1.701	1.639	1.567	1.418	1.559	1.208	1.273	1.295	1.246	1.247	1.179	0.995	0.949	0.908	0.827	0.873	0.829	0.849	0.897	1.091	1.591	1.476	1.099	0.809	0.781	0.752	0.806	0.816	0.883	1.054	1.169	1.084	0.950	0.850	0.830	0.757	0.818	1.304	2.747	5.570	23.14	65.04
605.0	106.5	98.71	80.85	46.32	32.19	23.61	30.90	30.31	36.18	203.8	104.1	87.58	42.38	26.03	17.94	130.8	485.5	39.40	3.443	3.131	2.708	2.627	2.715	2.418	2.158	2.022	1.824	1.850	2.065	2.005	2.046	1.834	1.713	1.669	1.447	1.562	1.475	1.426	1.445	1.240	1.102	1.083	1.086	1.044	1.200	1.116	1.019	1.041	0.835	0.791	0.801	0.740	0.692	0.792	0.796	1.222	1.480	1.217	0.836	0.856	0.699	0.749	0.808	0.868	0.987	1.040	1.076	0.894	0.770	0.730	0.813	0.774	0.847	1.100	1.707	5.974	29.80
610.0	106.3	99.59	74.92	45.73	29.97	24.27	25.06	29.54	36.02	191.0	77.16	102.0	48.98	25.58	14.39	38.96	334.3	179.7	8.106	2.894	2.560	2.159	2.183	2.149	1.803	1.950	1.816	1.767	1.878	1.724	1.830	1.608	1.447	1.429	1.340	1.258	1.326	1.304	1.198	1.174	1.069	1.020	0.965	0.992	1.019	1.039	0.952	0.935	0.855	0.726	0.736	0.679	0.661	0.694	0.696	0.877	1.186	1.217	1.013	0.865	0.798	0.754	0.726	0.820	0.840	0.915	1.111	0.963	0.870	0.754	0.778	0.767	0.755	0.769	0.881	1.853	7.468
615.0	98.18	87.14	70.66	43.84	28.18	23.17	24.85	27.09	32.49	181.0	58.10	91.04	63.96	25.36	13.79	15.55	100.2	290.8	56.22	2.853	2.339	2.205	1.903	1.809	1.667	1.809	1.754	1.407	1.617	1.522	1.606	1.530	1.308	1.222	1.244	1.149	1.114	1.110	1.155	1.038	0.957	0.931	0.988	0.951	0.840	0.866	0.891	0.828	0.825	0.661	0.687	0.662	0.678	0.632	0.676	0.697	0.863	1.143	1.098	0.959	0.802	0.719	0.761	0.709	0.761	0.787	0.889	1.015	0.956	0.780	0.644	0.693	0.731	0.704	0.712	0.926	2.159
620.0	95.69	86.65	62.91	41.65	27.06	22.98	23.63	25.31	30.26	171.7	49.99	74.53	74.36	25.72	13.61	10.87	29.30	206.6	161.7	4.783	2.044	2.121	1.734	1.731	1.505	1.743	1.535	1.364	1.384	1.371	1.339	1.329	1.304	1.203	1.183	1.213	0.999	1.070	1.058	0.959	0.917	0.946	0.881	0.842	0.892	0.820	0.779	0.872	0.805	0.578	0.658	0.641	0.677	0.595	0.666	0.609	0.782	0.916	1.040	0.998	0.779	0.761	0.779	0.727	0.700	0.739	0.694	0.945	0.902	0.860	0.644	0.640	0.693	0.643	0.672	0.736	0.982
625.0	87.28	83.31	64.70	38.66	24.93	23.55	21.29	24.28	31.09	163.6	45.53	56.28	77.98	31.22	13.91	10.18	11.88	86.83	255.8	20.12	1.998	1.985	1.902	1.624	1.523	1.526	1.585	1.432	1.337	1.446	1.279	1.239	1.248	1.171	1.145	1.095	0.948	0.878	0.893	0.952	0.839	0.905	0.852	0.786	0.839	0.766	0.745	0.767	0.727	0.607	0.562	0.709	0.663	0.584	0.614	0.635	0.650	0.721	0.944	0.991	0.824	0.741	0.725	0.770	0.810	0.722	0.827	0.859	0.853	1.040	0.858	0.629	0.745	0.603	0.688	0.671	0.675
630.0	89.14	83.64	65.65	38.91	24.98	21.62	21.05	22.84	28.57	152.0	41.27	47.41	66.25	43.82	15.33	9.681	8.233	26.16	183.4	119.9	4.532	2.013	1.719	1.564	1.442	1.501	1.434	1.333	1.349	1.334	1.248	1.057	1.110	1.116	1.026	0.979	0.969	0.848	0.890	0.875	0.883	0.792	0.771	0.835	0.840	0.805	0.725	0.727	0.663	0.562	0.497	0.602	0.565	0.578	0.613	0.553	0.656	0.719	0.747	0.886	0.916	0.773	0.715	0.729	0.758	0.688	0.728	0.733	0.774	0.931	0.887	0.718	0.717	0.693	0.618	0.659	0.672
635.0	93.23	86.60	60.76	38.83	25.12	25.63	21.65	24.20	27.49	138.5	40.31	45.46	48.93	58.73	22.31	12.04	9.574	10.90	58.40	210.0	35.26	2.206	1.549	1.675	1.262	1.422	1.376	1.236	1.223	1.229	1.118	1.164	1.061	1.095	0.860	0.887	0.967	0.745	0.843	0.846	0.931	0.781	0.907	0.799	0.830	0.815	0.806	0.742	0.672	0.569	0.486	0.576	0.563	0.589	0.599	0.571	0.600	0.627	0.612	0.753	0.846	0.856	0.711	0.727	0.772	0.662	0.678	0.643	0.777	0.874	0.817	0.718	0.696	0.689	0.611	0.662	0.662
640.0	114.8	113.7	73.61	41.14	26.15	22.46	21.59	26.46	29.87	134.3	43.16	50.26	48.52	62.59	34.73	18.19	12.62	8.897	18.66	164.5	83.35	2.761	1.652	1.541	1.344	1.294	1.323	1.273	1.152	1.345	0.986	1.212	1.151	0.998	0.896	0.877	0.936	0.853	0.871	0.780	0.856	0.873	0.867	0.738	0.788	0.752	0.771	0.713	0.589	0.569	0.484	0.552	0.536	0.536	0.589	0.646	0.617	0.578	0.591	0.701	0.809	0.768	0.796	0.744	0.724	0.666	0.692	0.855	0.747	0.857	0.829	0.860	0.847	0.824	0.636	0.638	0.675
645.0	129.8	139.0	84.68	47.80	25.63	23.71	21.24	25.15	31.68	134.0	48.62	49.93	49.41	60.11	49.23	22.40	15.02	10.23	9.249	75.25	193.9	11.22	1.922	1.357	1.254	1.356	1.218	1.254	1.116	1.200	1.048	1.138	1.101	1.070	1.002	0.914	0.852	0.724	0.894	0.792	0.799	0.892	0.882	0.654	0.827	0.763	0.850	0.822	0.657	0.577	0.528	0.614	0.558	0.572	0.526	0.539	0.607	0.608	0.678	0.693	0.780	0.774	0.818	0.792	0.703	0.616	0.736	0.803	0.788	0.792	0.767	0.832	0.847	0.848	0.766	0.744	0.772
650.0	149.9	155.7	98.53	55.31	28.92	23.26	23.48	26.49	31.70	130.4	49.14	54.85	52.13	53.94	56.57	26.75	16.18	10.97	7.487	25.46	196.4	50.49	1.953	1.434	1.350	1.168	1.189	1.111	1.261	1.062	0.961	0.958	1.006	1.062	0.894	0.928	0.827	0.822	0.718	0.718	0.822	0.765	0.845	0.704	0.833	0.857	0.875	0.789	0.747	0.623	0.566	0.656	0.584	0.572	0.574	0.530	0.671	0.556	0.664	0.604	0.680	0.758	0.906	0.740	0.809	0.652	0.745	0.778	0.826	0.775	0.787	0.726	0.893	0.825	0.698	0.673	0.767
