Sample:	'1
File name:	20250327西外环高速北.FD3
Run date:	'10:36:19, 03/28/2025
Operator:	Administrator
Comment:	'

Instrument
Model:	F-2700 FL Spectrophotometer
Serial number:	23B8-004
ROM Version:	4J14000 07

Instrument parameters
Measurement type:	3-D scan
Data mode:	Fluorescence
EX  Start WL:	220.0 nm
EX  End WL:	600.0 nm
EX Sampling interval:	5.0 nm
EM  Start WL:	230.0 nm
EM  End WL:	650.0 nm
EM Sampling interval:	5.0 nm
Scan speed:	12000 nm/min
EX Slit:	5.0 nm
EM Slit:	5.0 nm
PMT Voltage:	700 V
Response:	Auto 
Corrected spectra:	Off
Contour interval:	50.000

Peak integration
Integration method:	Rectangular
Sensitivity:	1
Threshold:	1.000

Peaks
No.	ApexEX/EM(nm)	Height(Data)
1	225.0/300.0	5761
2	225.0/490.0	267.3
3	225.0/590.0	466.7
4	230.0/500.0	235.7
5	235.0/515.0	188.5
6	240.0/265.0	408.1
7	240.0/525.0	169.6
8	245.0/270.0	422.2
9	245.0/535.0	142.0
10	250.0/275.0	600.0
11	250.0/550.0	132.7
12	255.0/565.0	151.2
13	260.0/575.0	190.1
14	265.0/585.0	237.0
15	270.0/300.0	3604
16	270.0/600.0	268.0
17	275.0/305.0	3781
18	275.0/335.0	2908
19	275.0/610.0	239.2
20	360.0/415.0	173.5
21	365.0/420.0	169.1
22	375.0/435.0	120.3
23	380.0/440.0	113.3
24	390.0/300.0	8.960
25	395.0/460.0	72.73
26	400.0/465.0	65.16
27	415.0/485.0	38.98
28	430.0/505.0	23.28
29	440.0/520.0	16.62
30	445.0/525.0	14.69
31	460.0/300.0	15.77
32	460.0/545.0	7.914
33	470.0/560.0	4.778
34	485.0/265.0	2.143
35	495.0/310.0	11.30
36	505.0/275.0	3.467
37	510.0/280.0	4.317
38	545.0/300.0	16.58
39	550.0/305.0	16.80
40	560.0/310.0	15.53

Data points
	220.0	225.0	230.0	235.0	240.0	245.0	250.0	255.0	260.0	265.0	270.0	275.0	280.0	285.0	290.0	295.0	300.0	305.0	310.0	315.0	320.0	325.0	330.0	335.0	340.0	345.0	350.0	355.0	360.0	365.0	370.0	375.0	380.0	385.0	390.0	395.0	400.0	405.0	410.0	415.0	420.0	425.0	430.0	435.0	440.0	445.0	450.0	455.0	460.0	465.0	470.0	475.0	480.0	485.0	490.0	495.0	500.0	505.0	510.0	515.0	520.0	525.0	530.0	535.0	540.0	545.0	550.0	555.0	560.0	565.0	570.0	575.0	580.0	585.0	590.0	595.0	600.0
230.0	63.92	1378	2798	663.5	22.71	4.006	3.745	3.275	3.014	3.165	3.244	3.124	3.406	2.473	1.689	1.344	1.122	0.932	0.878	0.733	0.620	0.564	0.517	0.519	0.417	0.434	0.389	0.328	0.297	0.308	0.301	0.320	0.280	0.238	0.226	0.248	0.219	0.237	0.232	0.239	0.362	0.558	0.489	0.256	0.164	0.250	1.622	6.509	9.408	5.944	1.818	0.329	0.124	0.109	0.106	0.090	0.083	0.087	0.096	0.080	0.077	0.074	0.086	0.081	0.091	0.068	0.081	0.070	0.060	0.062	0.068	0.068	0.057	0.082	0.045	0.058	0.061
235.0	131.9	385.4	1841	2696	536.6	33.78	5.130	3.666	3.466	3.017	2.709	3.511	3.755	2.911	2.047	1.864	1.223	1.053	0.792	0.834	0.635	0.631	0.577	0.442	0.400	0.438	0.463	0.403	0.297	0.276	0.279	0.311	0.279	0.207	0.211	0.262	0.258	0.226	0.225	0.233	0.232	0.356	0.500	0.538	0.441	0.278	0.596	1.698	3.839	6.539	8.909	8.946	3.545	0.655	0.105	0.091	0.117	0.103	0.117	0.080	0.097	0.090	0.083	0.095	0.116	0.081	0.083	0.090	0.077	0.055	0.083	0.095	0.067	0.067	0.062	0.055	0.055
240.0	188.3	176.4	563.7	2516	2965	421.3	18.76	4.754	4.549	4.029	3.014	4.072	3.547	2.524	1.879	1.664	1.154	0.814	0.924	0.843	0.654	0.686	0.767	0.416	0.478	0.475	0.375	0.484	0.355	0.242	0.326	0.371	0.264	0.245	0.214	0.245	0.185	0.287	0.278	0.232	0.163	0.230	0.314	0.390	0.708	0.573	0.516	0.564	0.974	1.946	5.021	12.02	14.74	9.616	3.089	0.356	0.130	0.103	0.115	0.106	0.095	0.091	0.071	0.100	0.098	0.086	0.104	0.081	0.094	0.118	0.087	0.084	0.068	0.067	0.048	0.073	0.080
245.0	141.5	263.2	188.5	913.5	3506	3088	300.2	9.073	5.682	5.343	4.147	4.530	4.282	2.778	1.828	1.543	1.639	1.136	1.006	0.849	0.759	0.782	0.639	0.592	0.554	0.512	0.382	0.314	0.351	0.300	0.376	0.386	0.300	0.268	0.196	0.215	0.229	0.255	0.238	0.196	0.155	0.254	0.264	0.282	0.442	0.701	0.848	0.653	0.430	0.561	1.283	4.234	10.75	17.92	17.27	8.879	2.031	0.173	0.114	0.074	0.101	0.092	0.102	0.122	0.094	0.090	0.095	0.113	0.062	0.102	0.091	0.066	0.077	0.068	0.044	0.072	0.079
250.0	54.16	179.0	263.1	298.9	1161	3395	4101	1200	62.65	6.791	5.850	5.273	4.918	3.672	2.477	1.672	1.559	1.154	1.159	0.895	0.772	0.706	0.614	0.600	0.540	0.558	0.411	0.387	0.410	0.347	0.378	0.385	0.280	0.260	0.251	0.219	0.197	0.252	0.210	0.243	0.174	0.223	0.221	0.209	0.235	0.363	0.501	0.723	0.835	0.791	0.625	1.153	2.654	5.787	10.85	16.57	21.88	17.72	9.427	2.414	0.282	0.126	0.110	0.104	0.110	0.105	0.096	0.090	0.073	0.104	0.085	0.080	0.084	0.080	0.073	0.075	0.067
255.0	29.34	58.16	205.3	346.1	347.1	873.7	3513	6699	1655	58.35	8.955	7.407	7.100	4.546	2.769	2.127	1.525	1.423	1.143	1.081	0.954	0.711	0.794	0.588	0.521	0.575	0.411	0.582	0.450	0.406	0.417	0.546	0.336	0.286	0.301	0.259	0.227	0.281	0.218	0.303	0.220	0.201	0.228	0.209	0.201	0.246	0.291	0.363	0.425	0.873	1.344	1.228	1.039	1.501	2.569	4.093	8.244	18.97	34.68	27.88	14.75	2.840	0.243	0.158	0.148	0.134	0.124	0.118	0.124	0.118	0.102	0.086	0.075	0.087	0.063	0.075	0.102
260.0	26.34	29.65	84.32	301.7	336.9	254.4	1072	5721	7374	276.5	29.61	10.15	9.099	5.126	3.455	2.337	1.856	1.567	1.471	1.280	1.106	0.884	0.765	0.615	0.471	0.578	0.489	0.520	0.431	0.427	0.533	0.454	0.355	0.340	0.328	0.232	0.299	0.343	0.236	0.316	0.247	0.247	0.277	0.217	0.276	0.239	0.227	0.208	0.230	0.367	0.782	1.622	1.612	1.036	0.831	1.103	2.075	5.043	15.07	31.52	43.76	26.34	11.37	1.136	0.202	0.175	0.138	0.128	0.158	0.114	0.112	0.096	0.093	0.059	0.075	0.086	0.163
265.0	34.96	27.43	36.55	143.6	408.1	264.5	283.6	1943	8035	6909	223.5	16.78	12.53	6.970	3.570	2.843	2.051	1.576	1.690	1.328	1.189	1.092	0.946	0.648	0.637	0.623	0.619	0.457	0.500	0.463	0.428	0.570	0.432	0.350	0.277	0.320	0.385	0.331	0.323	0.345	0.272	0.306	0.243	0.275	0.262	0.259	0.231	0.227	0.202	0.213	0.299	0.768	1.544	2.143	1.311	0.599	0.755	1.377	3.677	9.257	23.97	44.68	52.66	22.94	6.010	0.464	0.189	0.156	0.167	0.145	0.178	0.130	0.100	0.084	0.116	0.086	0.133
270.0	136.9	104.9	79.98	70.25	208.3	422.2	317.5	514.3	2555	7217	8830	865.7	65.88	9.432	5.960	3.962	3.047	2.398	1.915	1.546	1.239	1.207	1.013	0.857	0.694	0.735	0.664	0.557	0.590	0.491	0.591	0.669	0.580	0.584	0.640	0.584	0.614	0.664	0.590	0.577	0.461	0.577	0.494	0.435	0.489	0.463	0.424	0.424	0.342	0.300	0.270	0.383	0.629	1.158	1.811	2.043	1.836	1.121	1.207	2.362	5.886	13.00	25.43	38.38	37.76	40.79	15.24	5.636	0.599	0.184	0.201	0.172	0.167	0.096	0.165	0.155	0.142
275.0	701.6	729.5	591.7	264.8	159.7	255.6	600.0	427.4	736.9	1929	6578	9999.9	1331	56.89	9.179	5.586	4.115	3.140	2.435	2.032	1.505	1.509	1.026	1.012	1.083	0.710	0.775	0.710	0.605	0.591	0.632	0.936	1.078	1.447	1.501	1.304	1.150	1.054	1.147	1.214	1.111	1.311	1.421	1.451	1.608	1.669	1.799	1.890	1.720	1.459	0.840	0.702	0.584	0.630	0.860	1.215	2.302	3.467	2.589	1.616	2.097	3.688	6.608	9.732	12.43	30.44	59.28	67.13	24.10	5.892	0.465	0.234	0.200	0.194	0.230	0.185	0.137
280.0	1861	1693	1750	762.3	353.9	260.2	516.1	871.6	467.5	895.2	2280	9370	9999.9	900.9	27.19	8.627	5.510	3.804	2.968	2.398	1.946	1.629	1.354	1.136	1.009	0.716	0.873	0.754	0.690	0.881	0.772	1.213	1.708	2.623	3.221	2.636	2.133	1.843	1.856	1.995	2.209	2.428	3.050	2.994	3.879	4.640	4.756	5.185	4.699	4.054	2.505	1.638	1.454	1.155	1.073	1.085	1.494	2.802	4.317	4.205	2.683	2.479	3.598	4.344	5.238	9.455	21.50	48.36	71.80	32.93	18.96	2.837	0.368	0.371	0.278	0.286	0.267
285.0	2660	3031	2849	1320	584.7	359.9	421.3	954.8	1118	1009	1372	3537	9999.9	8598	126.0	15.59	7.399	4.632	3.715	2.823	2.363	1.727	1.655	1.531	1.209	0.926	0.867	0.845	0.752	0.769	0.792	1.511	2.683	4.120	4.617	4.137	3.122	2.647	2.655	2.709	3.011	3.422	4.522	4.768	6.303	7.143	7.460	8.104	7.907	6.488	3.871	2.969	2.432	1.935	1.528	1.424	1.436	2.078	2.928	4.938	5.674	5.136	4.018	4.325	5.171	5.751	8.208	15.51	31.44	54.15	78.10	30.24	13.42	1.365	0.437	0.355	0.329
290.0	4000	4575	4154	2112	1031	731.1	579.9	881.5	1547	1931	1860	2252	4400	9441	8822	2104	36.06	7.586	5.223	3.858	2.880	2.248	1.991	1.718	1.336	1.278	1.129	0.880	0.903	0.859	1.122	1.816	3.491	5.690	6.779	5.967	4.909	4.252	3.736	3.845	4.269	5.069	6.278	7.105	8.802	10.14	10.47	11.96	11.74	9.703	6.065	4.931	3.981	3.417	3.119	2.781	2.247	2.582	2.964	4.109	5.959	7.786	8.531	8.585	8.338	8.020	8.146	10.03	12.87	17.33	31.47	41.72	57.29	49.13	20.35	10.40	1.721
295.0	4772	5456	5043	3098	1859	1553	931.8	986.0	1573	2533	3022	2636	2448	2892	5801	9999.9	723.9	35.30	8.197	5.148	3.701	2.719	2.393	1.872	1.504	1.509	1.209	1.045	0.820	1.115	1.074	1.984	3.958	6.738	8.255	7.292	5.847	5.236	4.655	4.760	4.955	5.982	7.017	8.577	10.34	11.99	13.04	14.63	14.47	11.74	8.935	7.534	6.984	5.980	5.988	5.926	4.081	3.257	3.758	4.551	5.770	7.297	9.115	12.08	14.05	12.71	11.29	11.74	11.28	10.54	11.99	12.79	16.43	25.77	53.84	77.86	31.80
300.0	4904	5761	5343	3549	2404	2144	1196	1102	1653	2509	3604	3245	2307	1555	1874	7681	9999.9	560.5	17.75	7.112	5.251	3.212	2.804	2.222	1.614	1.862	1.197	1.176	1.211	1.179	1.146	2.226	4.005	6.906	8.960	7.554	6.627	5.553	5.088	5.163	5.277	6.411	7.481	9.213	10.71	12.67	13.55	15.01	15.77	13.28	10.53	9.237	8.945	8.016	8.502	8.688	5.339	3.698	4.311	4.908	6.406	7.723	9.354	11.87	14.58	16.58	15.44	13.95	11.84	10.03	8.629	7.289	6.914	8.159	16.65	41.37	69.66
305.0	4784	5569	5288	3723	2672	2538	1363	1173	1731	2465	3449	3781	2537	1423	925.0	2341	9799	5333	78.82	11.18	6.665	4.025	3.247	2.805	2.258	1.968	1.741	1.483	1.283	1.213	1.319	2.318	4.017	6.299	8.694	8.044	6.696	5.466	4.966	4.977	5.038	6.538	7.212	9.100	10.92	12.36	13.01	14.52	14.63	13.01	10.59	10.70	9.668	9.486	9.789	10.41	6.094	4.248	4.675	5.161	6.722	8.009	9.787	11.41	13.24	15.32	16.80	16.57	13.99	10.66	8.815	6.665	5.050	4.600	6.017	11.10	23.61
310.0	4228	5017	4752	3576	2740	2672	1448	1197	1724	2404	3123	3539	3013	1671	851.6	803.2	2776	6198	6680	1646	26.18	6.128	4.376	3.575	2.789	2.170	1.919	1.609	1.360	1.230	1.412	2.024	3.548	6.250	8.008	7.455	6.384	5.270	4.685	4.573	4.865	5.938	6.580	7.991	9.594	10.76	11.69	13.04	13.22	11.91	10.10	10.47	10.25	9.696	10.58	11.30	6.720	4.540	4.541	5.516	6.686	8.143	9.494	11.19	12.63	13.77	14.60	15.28	15.53	13.47	10.91	7.619	5.694	4.310	3.855	4.326	6.516
315.0	3642	4179	4038	3093	2536	2506	1449	1212	1700	2320	2935	3152	2865	2145	1048	556.8	797.8	1526	4252	8970	529.6	26.70	6.179	4.447	3.711	2.639	2.177	1.749	1.467	1.153	1.292	2.099	3.137	5.130	6.520	6.404	5.613	5.016	4.219	4.150	4.463	5.293	5.742	6.629	8.244	9.323	9.653	11.23	11.25	10.06	8.731	9.532	8.707	8.875	9.613	10.79	6.420	4.665	4.654	5.455	6.605	8.196	9.343	10.42	12.02	12.97	13.20	13.63	13.24	12.72	12.69	10.12	7.768	5.201	4.293	3.318	3.287
320.0	3200	3560	3437	2734	2295	2274	1400	1243	1693	2280	2817	3012	2661	2199	1409	609.5	420.8	483.8	1159	5967	7725	444.7	14.24	5.668	3.773	3.251	2.415	1.869	1.760	1.463	1.524	2.145	3.060	4.560	5.650	5.745	5.181	4.646	3.826	3.897	4.221	4.708	5.297	6.179	7.270	8.349	8.420	9.788	9.743	8.662	7.733	8.453	8.177	8.062	8.649	9.596	6.249	4.531	4.953	5.791	6.728	7.845	8.796	10.71	11.58	12.31	12.45	13.18	12.93	11.90	11.31	10.57	9.737	7.508	5.253	3.509	2.849
325.0	2911	3243	3044	2431	2046	2054	1358	1271	1705	2257	2766	2926	2604	2049	1639	837.4	401.2	294.2	372.3	1721	7010	4054	62.28	9.151	5.503	3.774	2.641	2.259	1.957	1.644	1.620	2.216	2.720	3.967	4.944	5.107	4.604	4.174	3.674	3.585	3.875	4.068	5.033	5.955	6.666	7.590	7.710	8.792	8.652	7.429	6.905	7.387	7.051	7.040	8.239	8.795	6.193	4.749	5.200	5.932	6.736	8.174	8.849	10.92	11.48	12.21	11.93	13.00	12.72	11.49	10.76	9.655	9.270	9.270	7.388	4.649	3.236
330.0	2661	2888	2655	2059	1740	1782	1312	1331	1748	2258	2728	2891	2636	2065	1575	1132	629.2	336.1	245.4	483.1	1990	4813	5406	1348	21.30	5.316	3.657	2.774	2.316	1.881	1.720	2.324	2.432	3.659	4.309	4.352	4.100	3.833	3.580	3.416	3.537	3.985	4.630	5.285	6.241	7.195	6.884	7.502	7.296	6.408	5.882	6.290	6.333	6.300	7.076	7.606	5.726	4.563	5.464	6.098	7.142	8.187	8.953	10.37	11.50	12.01	12.25	13.04	12.65	11.62	11.14	9.877	8.742	8.677	7.401	6.518	5.482
335.0	2542	2717	2342	1823	1502	1537	1264	1363	1793	2285	2725	2908	2709	2172	1604	1114	923.0	521.7	280.9	246.7	527.4	1166	3748	7762	443.0	21.37	4.851	3.812	3.001	2.156	1.933	2.550	2.363	3.379	3.919	3.852	3.663	3.643	3.487	3.505	3.271	3.793	4.363	5.291	5.922	6.715	6.317	7.220	6.723	5.519	5.243	5.480	5.393	5.399	6.053	6.248	5.368	4.791	5.381	6.435	7.481	8.342	9.433	10.40	11.38	11.90	12.37	12.75	12.64	12.20	11.42	10.40	9.347	8.434	6.942	6.167	6.151
340.0	2433	2566	2137	1664	1358	1396	1227	1371	1787	2279	2705	2895	2713	2242	1673	1115	911.5	740.2	366.4	229.2	229.1	331.3	1020	5548	6829	375.2	11.04	4.531	3.466	2.540	2.184	2.941	2.229	3.045	3.432	3.312	3.427	3.408	3.408	3.362	3.239	3.702	4.209	5.166	5.904	6.293	6.026	6.573	6.009	5.246	4.701	5.251	5.056	4.778	5.183	5.623	5.204	4.994	5.449	6.704	7.133	8.213	9.141	10.11	11.04	11.88	12.08	12.44	12.90	12.44	11.47	10.73	9.830	8.975	7.542	6.432	5.745
345.0	2433	2427	1970	1510	1254	1287	1182	1372	1755	2235	2639	2846	2696	2273	1714	1157	851.3	796.8	539.2	274.2	191.4	168.6	294.9	1632	6645	3421	53.48	6.964	4.235	2.880	2.238	3.158	2.179	2.863	3.143	3.194	3.175	3.016	3.267	3.170	3.314	3.730	4.692	4.795	5.559	6.053	5.781	6.125	5.563	4.658	4.382	4.855	4.709	4.466	4.840	5.381	4.865	4.696	5.571	6.346	7.155	7.964	8.666	10.23	11.43	11.54	12.45	11.63	12.32	12.08	11.72	11.11	10.08	9.134	7.901	6.839	5.521
350.0	2263	2282	1793	1380	1141	1163	1136	1334	1692	2135	2528	2715	2610	2251	1737	1203	864.2	714.8	646.5	440.7	243.1	168.1	157.0	429.5	1941	4228	4351	1092	17.51	4.083	2.986	3.533	2.312	2.641	2.814	2.789	2.922	2.971	3.068	3.147	3.365	3.720	4.254	4.554	5.196	5.748	5.538	5.670	5.194	4.193	3.864	4.310	4.188	4.197	4.469	4.799	4.605	4.888	5.257	6.030	6.736	7.552	8.528	9.466	10.56	11.03	11.69	11.79	12.13	12.09	11.45	10.93	10.39	9.473	7.980	6.774	5.947
355.0	2113	2129	1657	1241	1047	1051	1070	1263	1598	2003	2391	2570	2511	2183	1727	1227	906.7	709.4	589.3	575.7	384.4	213.3	155.5	182.3	488.8	1024	3187	5968	400.5	17.00	4.032	4.648	2.703	2.792	2.937	2.742	2.757	2.934	3.013	3.130	3.128	3.593	4.006	4.550	5.093	5.408	5.099	5.067	4.530	3.813	3.379	4.151	3.823	3.766	3.913	4.324	4.536	4.668	5.009	5.681	6.307	7.481	7.912	8.823	9.353	10.28	10.88	10.86	11.58	11.35	11.01	10.34	10.46	9.255	7.965	6.936	6.073
360.0	2085	1978	1517	1172	994.3	968.1	1026	1218	1532	1896	2269	2450	2391	2121	1703	1229	928.2	731.5	587.9	548.4	506.2	289.7	179.7	143.9	179.8	271.7	879.4	4625	5124	330.3	7.931	6.323	3.041	2.979	2.722	2.674	2.821	2.730	2.881	3.035	2.880	3.583	3.675	4.448	4.862	5.248	5.142	4.876	4.344	3.612	3.247	3.740	3.522	3.559	3.645	3.980	4.276	4.645	4.900	5.358	6.261	6.969	7.518	8.566	9.068	9.989	10.52	10.76	10.71	11.22	10.69	10.09	9.874	8.872	7.750	6.588	6.498
365.0	1950	1966	1476	1105	942.5	933.5	969.1	1156	1463	1800	2142	2320	2274	2046	1660	1226	947.0	761.4	614.4	517.9	519.5	408.8	222.3	154.8	125.1	112.9	230.4	1407	5385	3157	48.52	9.790	3.729	3.075	2.814	2.705	2.821	2.920	2.789	2.741	3.047	3.383	3.677	4.163	4.360	5.328	4.930	4.715	4.372	3.251	3.191	3.639	3.305	3.340	3.485	3.659	4.141	4.303	4.450	4.749	6.107	6.690	7.314	8.196	8.531	9.523	9.879	10.08	10.32	10.08	10.27	9.971	9.438	8.878	7.558	6.900	6.292
370.0	1802	1786	1364	1001	899.7	875.8	895.4	1080	1334	1654	1957	2125	2114	1922	1585	1208	959.7	785.7	653.1	539.0	470.9	454.0	345.5	201.4	133.2	94.87	96.44	346.4	1618	4012	4016	1313	14.61	3.863	3.414	2.866	2.759	2.714	2.834	2.732	2.876	3.253	3.519	3.997	4.217	4.849	4.344	4.414	3.834	3.140	2.826	3.202	3.257	3.284	3.408	3.510	3.794	3.916	4.316	4.715	5.489	6.065	6.833	7.603	8.236	8.595	9.105	9.378	9.766	9.438	9.344	9.530	8.925	8.535	7.343	6.782	6.201
375.0	1646	1628	1231	928.7	844.4	811.7	835.4	986.9	1205	1495	1763	1922	1916	1773	1491	1173	955.6	798.3	681.6	568.8	474.9	409.8	403.8	304.1	163.7	107.7	78.92	117.1	388.6	974.6	3234	9167	338.3	14.12	3.974	3.325	2.799	2.895	2.824	2.837	2.871	3.083	3.548	3.886	3.904	4.223	4.201	4.205	3.480	3.095	2.738	2.879	3.089	3.023	3.239	3.046	3.501	3.580	4.206	4.550	4.779	5.531	6.325	6.527	7.330	7.705	8.181	8.338	9.108	8.808	8.647	8.712	8.349	7.578	6.853	6.710	5.898
380.0	1547	1542	1179	900.8	799.0	773.4	776.5	923.7	1116	1376	1615	1766	1778	1641	1414	1127	936.0	797.7	693.7	585.1	486.2	405.7	374.4	369.2	218.2	122.1	86.86	73.77	120.3	241.5	905.2	6834	2883	267.1	6.665	3.529	3.030	3.231	3.117	2.904	2.854	2.764	3.282	3.676	3.786	4.161	3.921	4.076	3.334	2.883	2.680	2.835	2.830	2.876	3.022	2.916	3.451	3.278	3.703	4.012	4.426	5.091	5.587	6.114	6.596	7.076	7.768	7.488	8.165	8.121	8.010	7.828	8.086	7.342	6.528	6.239	6.063
385.0	1487	1424	1099	873.8	770.0	729.2	747.6	856.5	1035	1269	1487	1628	1645	1537	1327	1077	911.2	794.7	693.0	593.1	500.4	411.4	348.3	350.4	292.2	152.4	95.31	71.70	66.03	82.09	224.6	2036	4247	2560	39.08	4.786	3.482	3.408	3.061	2.626	2.752	2.724	3.251	3.265	3.349	3.992	3.575	3.657	3.179	2.582	2.373	2.828	2.749	2.736	2.799	2.839	3.166	3.215	3.345	3.920	4.220	4.817	4.989	5.779	6.131	6.614	6.998	6.856	7.466	7.645	7.338	7.234	7.399	6.903	6.273	6.149	6.130
390.0	1323	1282	1035	798.3	717.1	675.5	698.8	783.8	915.8	1119	1313	1454	1482	1388	1215	1006	868.8	760.8	679.4	586.7	500.6	417.5	344.8	304.1	292.8	231.2	129.4	84.92	65.24	55.96	77.38	478.7	1302	3081	2966	666.1	12.39	4.057	3.433	2.701	2.623	2.894	2.930	2.944	3.288	3.647	3.337	3.352	2.874	2.436	2.157	2.658	2.557	2.600	2.576	2.667	2.866	2.921	3.201	3.536	3.942	4.294	4.582	5.067	5.557	5.738	6.142	6.323	6.622	6.751	6.874	6.635	6.530	6.486	5.982	5.700	5.426
395.0	1163	1136	928.4	738.2	672.5	627.9	647.2	694.7	813.3	983.2	1145	1275	1321	1234	1096	933.9	813.7	721.3	654.0	568.2	493.0	418.4	346.7	290.7	246.8	249.9	201.1	109.6	78.17	61.80	52.02	134.4	309.1	750.0	2388	3629	277.7	12.17	4.173	2.981	2.662	2.987	2.922	2.960	3.102	3.510	2.875	3.089	2.633	2.155	2.208	2.519	2.556	2.490	2.539	2.433	2.628	2.858	3.084	3.061	3.225	3.716	4.061	4.326	4.971	5.135	5.377	5.814	5.748	5.630	5.826	5.979	5.970	5.846	5.551	5.179	5.168
400.0	1028	1039	849.3	704.2	642.0	599.6	605.7	644.7	739.7	884.3	1050	1141	1224	1128	1006	865.0	764.3	684.2	621.7	551.3	481.3	413.5	346.8	287.2	235.1	216.1	231.1	153.4	90.53	67.99	53.52	61.67	91.78	184.6	670.4	2924	2369	222.7	6.459	3.249	2.725	2.864	2.786	2.963	2.782	3.247	2.855	2.868	2.512	2.060	2.056	2.414	2.436	2.526	2.325	2.302	2.511	2.510	2.939	2.947	3.073	3.431	3.488	3.984	4.437	4.937	4.868	5.067	5.047	5.190	5.559	5.409	5.169	5.608	5.101	4.933	5.002
405.0	1005	978.2	800.3	664.3	611.4	579.5	560.8	606.5	692.6	811.6	947.3	1050	1163	1029	926.4	802.6	717.0	651.5	590.0	528.4	463.0	399.1	341.7	284.9	230.3	198.4	208.2	199.7	113.9	78.11	60.06	50.13	46.94	61.04	165.2	900.8	2972	2125	35.05	4.350	3.072	2.912	2.771	2.784	2.692	3.109	2.657	2.760	2.432	2.047	1.855	2.294	2.387	2.342	2.185	2.262	2.405	2.540	2.682	2.949	3.058	3.365	3.483	3.720	3.892	4.167	4.213	4.695	4.824	4.762	5.023	4.779	4.800	5.035	4.881	4.629	4.676
410.0	904.7	876.3	725.1	619.8	566.0	537.6	521.4	553.2	616.4	725.7	831.0	948.7	1121	897.3	822.4	717.5	647.3	594.8	542.0	490.4	436.2	382.6	327.9	279.1	231.2	193.5	175.8	188.4	169.1	104.3	70.11	54.26	42.71	37.89	54.56	215.5	892.8	2327	2843	564.7	10.80	3.273	2.868	2.568	2.510	2.939	2.425	2.359	2.143	1.774	1.776	2.194	2.153	2.125	2.098	2.236	2.233	2.425	2.372	2.508	2.721	2.912	3.094	3.354	3.569	3.675	3.794	4.007	4.227	4.250	4.344	4.308	4.444	4.328	4.307	4.113	4.060
415.0	806.9	758.7	661.4	568.4	528.9	493.8	469.7	500.7	547.2	638.5	722.1	834.2	1055	779.1	718.7	633.5	579.8	533.9	493.5	445.1	401.5	351.8	312.5	265.7	226.4	189.7	165.1	154.7	173.5	153.2	87.81	62.32	47.54	36.23	32.96	63.34	210.9	562.8	2555	2689	247.6	10.99	3.044	2.675	2.449	2.910	2.324	2.193	2.090	1.705	1.737	2.076	2.139	1.873	2.013	2.102	2.025	2.370	2.129	2.034	2.374	2.784	2.806	2.758	3.225	3.263	3.270	3.285	3.393	3.532	3.803	3.919	4.070	3.984	3.794	3.663	3.538
420.0	697.2	710.9	596.1	526.5	508.2	463.2	453.9	461.1	506.2	577.6	650.1	763.7	977.9	692.3	641.9	573.4	531.4	485.8	451.6	409.1	369.7	331.4	295.2	253.4	219.5	186.6	162.8	144.1	148.2	169.1	118.5	69.88	51.26	38.97	30.71	31.50	60.24	136.2	726.6	2037	2050	205.2	5.156	2.789	2.555	2.910	2.248	1.988	1.964	1.711	1.660	1.925	1.996	1.815	1.917	1.922	1.809	2.014	2.115	2.062	2.159	2.466	2.506	2.437	2.781	2.817	3.096	3.149	3.151	3.218	3.338	3.336	3.400	3.555	3.291	3.377	3.203
425.0	659.5	648.7	552.8	492.8	471.7	432.1	424.5	432.4	466.2	525.4	589.8	685.2	887.3	625.1	579.1	527.0	483.2	443.6	409.2	377.8	344.8	313.0	277.3	243.7	211.6	181.5	160.5	140.9	131.4	149.4	147.1	87.21	57.37	42.78	32.31	26.96	28.88	42.09	172.7	610.9	2132	1841	32.81	3.638	2.584	2.743	2.111	2.000	1.801	1.534	1.628	1.811	1.870	1.783	1.757	1.780	1.729	1.871	1.823	2.000	1.982	2.251	2.417	2.400	2.588	2.689	2.865	2.874	3.141	2.825	2.988	3.193	3.012	3.233	3.152	2.818	3.024
430.0	824.7	574.6	501.2	460.1	432.3	405.1	390.9	400.6	426.6	476.0	529.9	609.1	804.4	543.3	505.3	460.9	423.8	395.8	369.0	340.4	314.4	287.8	257.2	229.0	200.8	177.1	158.3	140.2	127.7	125.8	135.8	120.0	74.47	48.45	37.40	29.26	25.21	24.33	49.53	144.8	616.6	1719	1691	494.3	10.67	3.367	2.257	1.970	1.874	1.516	1.512	1.729	1.823	1.729	1.691	1.676	1.674	1.748	1.679	1.665	1.955	1.921	2.198	2.155	2.267	2.336	2.479	2.504	2.746	2.647	2.819	2.730	2.767	2.856	2.844	2.552	2.600
435.0	1580	529.9	466.2	431.7	405.6	379.1	366.4	381.0	393.5	430.5	471.8	544.9	746.5	470.2	436.3	402.5	370.2	350.6	329.6	302.9	282.5	261.4	236.5	215.1	192.2	171.3	155.3	140.3	127.7	116.4	112.8	120.3	106.8	62.20	42.37	33.03	27.60	23.02	24.50	41.73	145.1	408.0	1145	2150	241.6	20.04	2.671	1.992	1.851	1.557	1.540	1.746	1.671	1.654	1.526	1.726	1.719	1.533	1.519	1.577	1.785	1.723	2.026	1.863	1.972	2.152	1.997	2.084	2.274	2.397	2.378	2.419	2.416	2.316	2.372	2.281	2.522
440.0	2250	691.4	437.0	411.5	377.6	353.2	349.1	342.8	358.1	404.3	426.2	502.9	691.5	429.0	393.6	365.8	336.8	318.9	299.8	280.7	258.8	239.5	219.5	201.3	184.7	166.3	151.6	135.4	125.3	113.6	103.4	101.8	113.3	80.94	47.80	36.02	29.56	24.26	20.81	20.32	40.97	98.10	308.5	1634	1931	246.4	6.515	2.140	1.761	1.551	1.468	1.865	1.522	1.541	1.577	1.507	1.670	1.553	1.489	1.473	1.792	1.677	1.754	1.734	1.989	2.049	1.964	1.891	2.061	2.242	2.390	2.230	2.482	1.996	2.116	2.053	2.108
445.0	2259	1178	397.9	384.5	356.3	336.0	325.3	329.5	343.3	377.3	395.4	468.6	649.4	381.1	361.8	327.7	310.1	291.7	272.2	258.9	238.3	223.4	207.9	191.3	174.6	158.6	147.2	134.3	122.9	115.1	102.1	91.57	100.1	97.90	61.35	40.37	31.33	26.74	21.46	17.69	19.12	29.96	75.74	475.3	1808	3066	29.74	3.521	2.207	1.715	1.476	1.707	1.497	1.611	1.550	1.415	1.559	1.415	1.499	1.556	1.634	1.606	1.725	1.738	1.762	1.759	1.805	1.937	1.858	1.929	1.991	2.026	2.090	1.885	2.034	1.873	1.998
450.0	1364	2010	596.9	349.2	333.1	310.3	302.9	304.8	316.3	340.7	356.2	408.8	564.9	333.2	310.8	284.9	269.0	255.7	240.7	226.6	213.0	199.6	186.6	174.0	159.2	147.9	137.9	129.4	119.6	111.8	101.4	88.93	82.05	87.76	81.39	51.59	36.02	29.71	23.89	19.37	16.23	16.28	24.61	112.4	503.9	2205	1783	478.6	10.32	1.896	1.524	1.675	1.449	1.413	1.507	1.444	1.388	1.407	1.419	1.490	1.531	1.442	1.582	1.500	1.554	1.606	1.683	1.712	1.596	1.658	1.639	1.694	1.828	1.582	1.778	1.676	1.745
455.0	610.3	1877	1235	345.1	304.3	289.5	273.6	276.3	288.7	298.9	312.3	354.3	472.3	286.8	263.7	243.7	227.4	218.3	207.4	194.9	186.0	175.3	166.0	156.0	144.6	135.4	128.0	121.6	114.2	107.3	97.53	87.04	75.82	70.90	76.90	70.69	43.96	32.69	26.91	21.67	17.92	15.11	13.68	31.86	117.4	509.8	1019	1765	207.6	12.44	1.797	1.579	1.484	1.420	1.354	1.384	1.419	1.276	1.234	1.391	1.290	1.346	1.343	1.403	1.376	1.490	1.512	1.483	1.329	1.477	1.371	1.531	1.556	1.500	1.393	1.468	1.590
460.0	388.8	1216	2066	475.3	276.5	268.0	250.8	260.6	269.7	272.7	285.2	319.0	414.6	255.3	230.1	211.8	200.4	193.0	185.7	174.2	164.8	158.3	151.1	142.9	134.6	126.8	120.9	113.3	109.3	103.5	93.08	84.49	73.94	63.98	64.59	72.73	57.92	36.98	28.60	22.99	19.28	15.28	12.47	13.90	32.13	119.4	258.0	1072	1564	172.9	7.645	1.925	1.534	1.378	1.253	1.173	1.267	1.110	1.230	1.327	1.260	1.324	1.295	1.389	1.470	1.246	1.309	1.286	1.234	1.266	1.257	1.340	1.303	1.333	1.219	1.279	1.256
465.0	314.2	625.3	2192	843.9	258.3	236.4	235.2	242.0	247.3	251.6	255.1	286.8	368.6	223.7	206.4	185.5	178.8	168.7	163.5	154.3	150.5	141.1	134.6	131.2	122.8	117.1	112.1	107.1	102.3	97.93	90.47	81.73	72.30	61.82	56.72	63.26	65.16	43.16	30.58	23.88	19.92	16.40	13.01	10.92	12.85	32.03	62.01	288.3	1241	1376	142.2	4.522	1.700	1.517	1.372	1.396	1.142	1.215	1.158	1.214	1.228	1.186	1.216	1.072	1.237	1.062	1.206	1.235	1.059	1.036	1.236	1.202	1.130	1.269	1.154	1.117	1.221
470.0	311.0	340.0	1287	1902	435.2	211.4	210.2	215.5	220.3	221.4	227.0	249.2	314.9	194.4	178.2	160.4	152.1	146.9	138.8	131.8	130.6	123.1	116.8	114.5	107.6	103.9	99.07	95.01	93.28	90.15	84.05	75.88	67.52	58.73	51.63	50.87	56.23	52.64	36.63	25.04	19.95	15.95	13.18	10.64	9.385	12.57	17.96	67.99	327.3	923.1	1193	493.6	12.11	1.913	1.461	1.396	1.238	1.320	1.097	1.070	1.222	1.044	1.173	1.129	1.044	1.075	1.080	1.119	1.006	1.030	0.978	1.052	1.010	1.084	1.008	0.951	1.052
475.0	319.9	256.4	496.7	1904	1276	218.9	184.3	191.2	192.3	200.8	193.6	212.8	264.8	168.2	149.3	134.5	127.3	121.2	118.7	111.1	109.6	105.9	100.3	98.48	93.91	90.51	87.84	83.38	84.41	81.40	76.67	69.12	61.41	54.48	48.40	44.92	42.82	46.87	44.34	28.98	20.18	16.40	13.20	10.85	9.180	8.036	8.105	18.58	75.58	210.3	502.8	1307	589.5	17.99	1.606	1.375	1.193	1.275	1.074	1.001	1.042	1.002	1.158	0.929	0.980	0.984	0.978	0.966	0.902	0.719	0.809	0.894	0.888	0.872	0.938	0.741	0.779
480.0	302.6	244.0	267.1	1170	2153	374.1	169.1	172.8	180.1	178.7	176.9	189.1	234.0	146.4	128.4	119.1	113.2	107.4	103.8	100.2	96.14	93.32	89.22	87.67	84.95	81.72	79.71	77.97	76.54	74.73	69.84	64.52	57.33	52.23	46.51	41.69	37.17	39.01	44.24	35.66	21.78	16.03	13.02	10.70	8.886	7.530	5.990	7.653	19.86	49.47	120.2	638.6	1263	213.2	10.88	1.438	1.245	1.236	1.076	0.928	0.925	0.906	1.017	0.919	0.872	0.878	0.904	0.823	0.734	0.750	0.791	0.777	0.706	0.755	0.715	0.756	0.704
485.0	275.4	256.8	198.5	541.4	2357	932.7	163.4	162.6	165.5	162.5	162.4	173.3	206.3	132.1	118.7	108.0	100.7	97.36	92.37	90.52	87.59	84.75	83.35	79.66	78.61	75.26	72.96	71.45	69.81	69.16	65.18	61.21	55.38	50.12	44.61	39.79	35.55	33.46	37.56	38.98	26.38	16.94	13.61	10.86	8.861	7.931	6.171	5.626	7.519	13.78	29.43	160.7	790.9	1198	178.0	6.129	1.543	1.179	1.031	0.968	0.965	0.964	0.861	0.952	0.912	0.790	0.780	0.771	0.767	0.665	0.622	0.653	0.724	0.656	0.687	0.673	0.751
490.0	206.4	267.3	197.6	247.3	1345	2098	328.4	149.3	154.4	150.7	142.5	152.4	178.3	114.7	103.4	93.12	88.45	84.70	80.56	79.11	76.84	74.34	73.34	70.94	69.12	66.68	65.95	65.46	64.12	63.54	60.43	56.28	51.21	46.38	41.54	37.92	34.17	30.29	29.97	33.31	32.11	21.08	13.48	11.06	9.178	7.647	6.643	5.766	5.149	6.012	9.258	38.46	198.0	622.3	973.9	582.6	14.66	1.576	1.161	1.010	0.936	0.916	0.840	0.883	0.802	0.784	0.779	0.765	0.720	0.677	0.657	0.664	0.655	0.627	0.628	0.499	0.661
495.0	155.6	218.0	218.0	156.9	453.8	2191	1328	152.0	137.7	135.5	124.5	132.7	150.6	99.66	88.43	80.82	76.23	73.90	69.33	68.09	65.72	63.57	63.36	61.34	60.08	58.94	58.84	58.09	57.52	56.50	53.74	50.14	46.41	42.08	38.30	35.36	31.78	27.20	25.72	25.42	28.64	26.81	16.13	11.58	9.599	8.149	6.851	6.213	5.220	4.473	5.071	11.25	46.73	142.1	379.8	1181	699.6	20.55	1.356	1.237	0.940	0.866	0.830	0.765	0.747	0.713	0.682	0.630	0.667	0.643	0.556	0.599	0.531	0.551	0.495	0.508	0.529
500.0	124.0	170.7	235.7	141.4	199.3	1297	2375	295.7	126.8	126.5	114.5	116.8	129.9	89.83	77.78	70.78	67.69	65.46	61.15	60.64	59.42	56.82	56.20	54.72	54.13	52.97	53.39	53.10	51.63	51.58	48.02	46.71	42.39	39.78	34.67	32.51	29.26	26.29	24.53	21.65	22.63	26.54	20.79	12.97	9.982	8.327	7.275	6.346	5.475	4.632	4.358	5.450	13.20	34.20	90.12	501.6	1217	232.5	14.49	1.317	0.917	0.765	0.871	0.831	0.654	0.634	0.594	0.549	0.519	0.567	0.540	0.497	0.445	0.534	0.450	0.522	0.470
505.0	113.2	142.7	226.0	161.4	128.8	531.6	2679	888.3	121.6	114.7	105.2	107.2	119.0	80.66	71.29	64.27	59.54	58.32	55.44	53.15	52.07	50.61	49.77	49.15	48.21	48.44	47.75	47.70	47.32	46.45	46.20	43.38	40.12	36.48	31.78	29.95	27.11	25.20	22.52	19.85	18.35	22.18	23.28	15.73	9.779	8.224	7.069	6.409	5.463	5.181	4.384	4.325	5.601	10.29	22.40	121.6	632.5	1070	204.3	6.762	1.126	0.892	0.876	0.735	0.634	0.576	0.616	0.541	0.543	0.465	0.484	0.498	0.428	0.477	0.406	0.458	0.328
510.0	105.6	112.5	170.5	186.9	108.6	202.2	1525	2242	243.0	99.72	92.87	92.17	101.8	68.41	61.87	55.15	52.07	49.00	47.47	45.14	44.39	42.40	42.25	42.47	41.45	41.20	41.75	41.30	41.47	41.50	40.22	37.06	34.76	32.13	28.64	26.79	23.97	22.82	19.89	17.84	16.24	16.27	19.49	18.97	12.58	8.434	7.123	6.163	5.422	5.347	4.791	4.207	4.011	4.946	7.315	29.42	152.9	507.8	824.3	369.1	14.52	1.185	0.857	0.714	0.683	0.583	0.495	0.494	0.515	0.432	0.433	0.480	0.377	0.400	0.369	0.348	0.420
515.0	83.77	94.41	109.0	188.5	122.2	107.8	460.1	2467	1266	99.90	80.06	83.25	85.48	57.12	53.39	45.99	42.40	41.35	39.66	38.27	37.58	37.02	36.21	37.09	35.84	35.36	34.63	35.22	34.64	35.61	34.13	31.86	30.32	27.53	24.79	24.23	20.99	20.04	18.28	15.78	14.28	13.46	13.27	17.16	16.16	10.17	7.143	6.503	5.147	5.058	4.800	4.473	3.706	3.547	3.982	8.653	35.75	115.0	273.9	768.5	530.4	20.54	1.076	0.748	0.617	0.616	0.525	0.468	0.419	0.413	0.410	0.353	0.372	0.382	0.355	0.347	0.353
520.0	74.84	79.09	96.87	151.0	147.7	84.91	161.4	1500	2455	215.3	72.86	72.93	75.49	52.00	45.93	41.61	37.98	35.74	35.00	33.96	32.11	31.73	32.23	32.34	32.32	33.38	30.15	31.65	30.83	30.81	30.98	28.35	27.06	25.21	21.99	21.16	19.64	18.40	16.24	14.87	12.83	12.35	10.95	13.32	16.62	13.07	7.774	5.943	5.226	4.688	4.496	4.238	4.048	3.318	3.036	3.941	9.584	27.25	63.80	314.6	831.5	231.3	13.03	0.854	0.666	0.515	0.404	0.469	0.458	0.450	0.302	0.363	0.352	0.346	0.361	0.399	0.260
525.0	69.48	68.71	76.23	107.7	169.6	85.91	87.54	585.2	2956	784.7	70.09	65.56	66.36	46.42	40.93	37.35	34.88	32.07	30.15	29.94	29.61	29.10	28.51	29.04	28.49	29.15	26.79	28.18	28.83	28.82	28.01	25.53	23.69	22.07	21.26	19.13	17.20	16.79	14.87	13.66	12.10	11.08	10.09	10.56	13.47	14.69	9.476	5.966	5.160	4.412	4.266	3.972	4.078	3.343	2.703	2.845	3.719	7.559	15.57	75.59	408.4	764.3	187.6	5.385	0.762	0.566	0.450	0.408	0.419	0.340	0.330	0.310	0.313	0.365	0.305	0.361	0.307
530.0	66.75	66.00	64.43	71.97	145.6	110.8	63.92	187.7	1728	2282	175.0	58.30	55.91	40.52	34.75	31.31	29.69	27.45	25.83	25.48	25.08	24.60	24.75	24.36	24.36	24.17	23.87	24.26	24.93	24.89	23.88	22.85	20.96	19.08	18.55	16.54	15.17	14.27	13.23	11.72	10.78	9.989	8.994	8.427	9.519	11.96	11.18	7.342	4.994	4.383	3.952	3.673	3.536	3.478	2.971	2.361	2.255	2.947	4.588	17.82	97.74	346.9	539.2	260.8	13.56	0.844	0.516	0.474	0.373	0.340	0.334	0.362	0.316	0.306	0.280	0.281	0.283
535.0	57.38	57.24	51.36	50.92	96.37	142.0	60.20	84.39	504.7	2627	1152	60.49	48.01	33.97	28.82	25.99	24.06	22.48	22.01	20.79	20.02	20.86	20.87	20.47	20.31	20.08	19.31	21.11	20.39	21.29	19.97	19.44	18.02	16.35	15.55	14.02	12.97	12.18	11.50	10.05	9.504	8.516	7.845	7.145	7.450	8.308	10.45	9.554	5.631	4.369	3.745	3.224	2.863	2.883	2.915	2.305	1.813	1.921	1.913	4.796	22.60	78.29	172.0	514.7	243.0	17.84	0.708	0.438	0.384	0.369	0.319	0.313	0.272	0.264	0.195	0.234	0.263
540.0	55.13	49.62	46.87	42.82	64.06	140.2	79.57	57.48	158.2	1578	2101	139.2	42.82	32.77	25.17	22.51	20.77	19.36	18.85	18.79	18.15	18.46	17.64	17.61	17.93	17.57	16.47	18.05	17.86	18.39	17.55	17.15	15.67	13.99	13.40	12.39	11.49	10.83	10.35	9.107	8.179	7.723	7.004	6.361	6.566	6.540	7.763	9.282	7.101	4.265	3.572	3.042	2.739	2.409	2.554	2.590	1.757	1.555	1.341	1.925	5.775	18.13	39.89	203.9	533.5	211.0	9.923	0.490	0.427	0.331	0.311	0.321	0.281	0.261	0.213	0.193	0.213
545.0	62.27	58.24	50.46	39.98	44.55	111.3	110.2	50.31	76.68	588.7	2913	585.6	42.00	27.56	23.00	19.47	18.81	16.56	16.55	16.18	16.27	15.45	15.86	15.67	15.51	15.41	15.23	15.69	15.42	16.45	15.49	14.82	13.52	12.61	11.72	10.81	10.13	10.01	8.909	8.338	7.569	6.725	6.405	5.855	5.395	5.340	5.664	7.894	7.914	4.835	3.500	2.664	2.488	2.265	2.074	2.319	2.182	1.262	1.166	1.239	1.979	4.776	9.732	48.21	258.6	510.8	156.9	3.860	0.429	0.362	0.316	0.245	0.265	0.228	0.204	0.231	0.227
550.0	85.65	76.75	65.99	47.04	34.22	66.19	132.7	65.95	54.96	178.6	1687	2022	123.5	23.80	18.65	16.57	15.36	14.35	13.88	12.99	13.22	12.73	13.41	12.89	12.24	13.03	12.43	12.56	13.02	13.00	13.00	11.94	11.44	10.79	9.857	9.143	8.936	8.133	7.646	7.064	6.578	5.922	5.359	4.973	4.775	4.704	4.519	5.266	6.810	5.880	3.930	2.569	2.361	2.024	1.893	1.762	1.862	1.676	1.151	1.022	1.033	1.739	2.756	11.35	61.35	219.3	366.5	138.8	12.83	0.527	0.309	0.255	0.221	0.249	0.222	0.193	0.219
555.0	148.6	170.3	147.0	79.32	44.89	46.32	107.8	105.1	62.91	92.64	499.7	2576	1053	23.89	16.22	13.55	12.60	11.16	11.20	10.28	10.53	9.816	10.30	10.01	10.15	10.05	10.26	10.53	10.59	10.78	10.39	9.710	9.014	8.497	8.056	7.292	7.222	6.713	6.235	5.635	5.322	4.980	4.853	4.328	3.999	4.084	3.743	3.802	4.500	5.841	4.723	2.653	2.078	1.793	1.578	1.609	1.442	1.530	1.526	1.079	0.829	1.074	1.148	3.170	14.30	49.51	113.2	318.5	224.0	16.06	0.513	0.324	0.264	0.212	0.192	0.258	0.176
560.0	253.2	264.1	225.8	119.8	60.11	47.59	84.59	143.7	78.59	90.04	187.5	1600	2851	67.30	14.63	12.44	10.41	9.700	10.04	9.007	8.146	9.045	8.770	8.821	8.624	8.446	8.418	8.907	8.791	8.592	8.499	8.423	7.785	7.272	6.887	6.729	6.201	5.704	5.404	4.685	4.862	4.163	4.288	3.877	3.657	3.870	3.565	3.359	3.439	4.561	4.778	3.562	1.952	1.543	1.333	1.376	1.319	1.164	1.575	1.283	0.869	0.908	0.835	1.425	3.823	11.71	26.31	123.3	360.5	173.0	8.601	0.423	0.328	0.221	0.251	0.243	0.165
565.0	312.3	325.1	290.2	147.2	70.96	50.72	62.65	151.2	105.3	102.0	130.1	640.2	4106	161.7	13.79	10.80	9.200	8.301	8.138	8.224	7.195	7.538	7.550	7.296	7.235	7.335	7.442	7.508	7.255	6.832	7.330	7.248	6.492	6.165	5.912	5.848	5.025	4.971	4.707	4.244	4.176	3.842	3.507	3.790	3.684	3.721	3.420	3.183	3.107	3.408	4.058	3.833	2.387	1.618	1.295	1.173	1.086	1.057	1.169	1.535	1.117	0.971	0.809	1.055	1.527	3.326	6.584	29.23	163.3	341.4	111.0	3.335	0.299	0.280	0.208	0.311	0.139
570.0	354.4	371.5	317.8	162.8	76.14	51.65	52.07	120.9	156.2	120.1	130.4	247.5	2657	1360	55.25	10.03	8.125	7.189	7.060	6.664	6.129	5.964	6.132	5.977	5.727	5.926	5.667	5.941	6.165	5.941	6.052	5.571	5.535	4.864	4.993	4.804	4.376	4.125	3.916	3.564	3.584	3.365	3.085	3.098	3.146	3.272	2.977	2.921	2.810	2.644	2.902	3.379	2.851	1.768	1.134	1.057	0.995	0.842	0.868	1.278	1.318	1.015	0.848	0.976	1.154	1.505	2.146	7.249	38.83	143.6	225.9	113.7	10.43	0.392	0.221	0.204	0.168
575.0	387.7	418.7	378.8	180.7	91.31	58.53	52.86	93.50	190.1	159.2	153.8	171.5	773.3	1866	474.4	10.36	7.009	6.313	5.739	5.482	4.863	4.941	4.789	4.606	4.885	4.925	4.721	4.415	4.554	4.729	4.649	4.518	4.501	4.167	4.200	3.626	3.591	3.514	3.293	2.945	2.656	2.944	2.648	2.769	2.609	2.938	2.645	2.823	2.465	2.356	2.083	2.237	2.707	2.218	1.233	0.948	0.874	0.866	0.752	0.961	1.059	1.432	1.057	1.006	1.105	1.139	1.353	2.295	9.319	32.48	68.93	192.7	151.0	13.21	0.230	0.236	0.156
580.0	388.4	450.0	394.7	208.5	98.62	67.58	60.08	81.18	174.3	200.1	175.3	174.3	261.1	1195	1058	28.61	6.492	5.668	4.909	4.708	4.144	4.508	4.058	4.009	3.813	3.986	3.996	3.907	3.728	3.957	3.543	3.819	3.622	3.708	3.544	3.608	3.363	3.108	2.878	2.686	2.464	2.450	2.384	2.477	2.426	2.468	2.480	2.576	2.457	2.227	1.693	1.680	2.481	2.353	1.543	0.965	0.889	0.721	0.708	0.805	0.955	1.256	1.406	0.974	1.092	1.093	1.082	1.172	2.774	7.795	16.16	74.97	223.6	113.3	4.317	0.280	0.136
585.0	396.0	460.0	427.3	223.2	113.6	84.41	61.48	80.11	158.0	237.0	198.4	187.0	155.3	459.8	1678	105.8	6.855	4.981	4.155	4.105	3.501	4.006	3.616	3.247	3.425	3.155	2.944	3.394	3.467	3.455	3.170	3.215	3.261	3.273	3.316	3.210	2.825	2.652	2.640	2.391	2.210	2.378	2.159	2.081	2.216	2.458	2.356	2.343	2.348	2.003	1.599	1.368	1.793	2.123	1.883	1.203	0.920	0.762	0.764	0.774	0.812	1.098	1.465	1.217	1.223	1.242	1.040	1.158	1.449	2.370	4.109	17.91	102.0	209.3	32.07	1.394	0.179
590.0	385.7	466.7	410.6	245.8	135.4	112.0	72.26	83.92	132.7	234.2	227.0	196.6	140.9	160.6	1040	871.6	28.52	4.717	3.801	3.378	3.292	3.201	2.877	2.914	2.700	2.866	2.626	2.913	2.647	2.785	2.640	2.845	2.668	2.624	2.735	2.779	2.544	2.236	2.133	1.923	1.875	1.828	1.889	1.904	2.082	2.200	2.151	2.168	2.115	1.842	1.448	1.229	1.334	1.652	1.936	1.669	0.992	0.710	0.765	0.783	0.820	0.818	1.079	1.386	1.341	1.191	1.072	1.063	1.101	1.155	1.455	4.402	24.22	85.35	122.6	72.90	8.267
595.0	371.3	434.3	398.0	253.0	158.5	132.5	83.07	78.57	119.7	200.8	259.1	210.6	147.5	94.74	300.9	1251	266.8	4.661	3.486	2.722	2.815	2.541	1.995	2.140	2.377	2.315	2.121	2.317	2.241	2.412	2.081	2.441	2.308	2.451	2.362	2.301	2.072	1.944	1.796	1.568	1.526	1.428	1.608	1.670	1.753	1.959	1.857	2.027	1.819	1.654	1.404	1.307	1.200	1.326	1.768	1.642	1.260	0.742	0.682	0.708	0.780	0.870	0.893	1.052	1.529	1.298	1.160	1.004	0.941	0.952	0.890	1.388	5.708	19.32	37.63	116.8	90.42
600.0	336.2	423.1	374.0	244.7	163.6	148.0	86.53	77.16	114.3	176.6	268.0	218.6	149.9	81.91	97.87	817.7	729.4	12.78	3.060	2.758	2.285	2.205	2.132	2.036	2.161	1.977	1.825	1.816	2.060	1.902	1.731	1.915	1.758	2.088	1.987	1.882	1.923	1.696	1.595	1.432	1.373	1.373	1.213	1.445	1.588	1.806	1.616	1.799	1.550	1.502	1.244	1.162	1.097	1.044	1.385	1.528	1.429	0.781	0.574	0.638	0.649	0.801	0.855	0.955	1.374	1.519	1.172	0.977	0.976	0.796	0.646	0.718	1.590	4.544	8.791	44.21	124.7
605.0	317.9	366.0	374.9	237.9	162.5	149.1	81.45	76.12	109.4	160.6	245.4	226.4	153.3	82.13	51.66	310.9	1118	68.50	2.935	2.606	2.128	1.894	1.828	1.844	1.934	1.923	1.566	1.509	1.596	1.807	1.662	1.839	1.684	1.763	1.751	1.765	1.941	1.417	1.302	1.123	1.172	1.189	1.114	1.285	1.435	1.586	1.621	1.599	1.377	1.383	1.129	1.078	1.011	0.926	1.025	1.358	1.321	1.022	0.688	0.541	0.611	0.671	0.828	0.810	0.991	1.422	1.350	1.228	0.980	0.795	0.678	0.592	0.735	1.330	2.203	10.39	54.70
610.0	291.6	331.2	321.8	218.9	159.2	155.8	84.05	75.33	102.9	144.8	208.5	239.2	150.8	83.16	41.90	87.59	724.4	518.8	13.44	2.438	1.941	1.670	1.552	1.601	1.520	1.399	1.485	1.294	1.478	1.391	1.473	1.444	1.439	1.675	1.593	1.537	1.453	1.334	1.158	1.022	1.024	1.005	0.981	1.148	1.195	1.293	1.396	1.388	1.311	1.178	0.997	1.017	0.857	0.867	1.010	1.017	1.068	0.986	0.750	0.681	0.553	0.603	0.714	0.876	0.969	1.064	1.244	1.298	0.981	0.701	0.673	0.541	0.502	0.590	0.693	2.516	12.83
615.0	282.8	295.9	278.0	206.9	156.6	155.8	84.71	67.40	95.63	133.9	177.8	222.0	159.6	84.36	41.93	33.30	203.3	824.2	77.67	2.586	1.862	1.541	1.576	1.321	1.346	1.141	1.258	1.112	1.165	1.100	1.102	1.234	1.187	1.434	1.379	1.321	1.229	1.105	1.173	0.834	0.812	0.785	0.835	0.967	1.064	1.137	1.172	1.160	1.067	1.021	0.859	0.821	0.764	0.768	0.849	0.924	0.832	0.794	0.797	0.738	0.592	0.538	0.804	0.790	0.892	0.897	1.032	1.049	1.166	0.763	0.574	0.549	0.497	0.392	0.389	0.712	2.978
620.0	249.7	270.7	246.1	193.3	148.2	146.9	80.00	64.86	94.08	126.0	161.9	197.5	165.6	81.37	42.84	21.46	54.42	570.9	447.6	5.982	1.685	1.532	1.285	1.181	1.041	1.056	1.107	0.908	1.004	1.037	0.984	1.191	1.053	1.313	1.122	1.062	0.984	0.921	1.022	0.854	0.718	0.702	0.752	0.797	0.966	0.951	1.015	1.006	0.957	0.907	0.803	0.717	0.748	0.699	0.798	0.742	0.670	0.609	0.711	0.865	0.637	0.594	0.699	0.652	0.908	0.804	0.762	0.884	1.051	0.847	0.595	0.427	0.423	0.317	0.301	0.333	0.791
625.0	212.5	234.9	224.7	174.1	148.1	133.5	77.22	62.84	86.23	118.8	154.6	172.3	168.5	87.36	42.28	20.30	18.81	225.0	728.6	41.76	1.922	1.270	1.050	1.151	0.866	0.989	0.880	0.798	0.953	0.744	0.882	1.036	0.916	1.102	0.968	0.846	0.970	0.845	0.864	0.784	0.634	0.602	0.693	0.741	0.863	0.735	0.739	0.812	0.883	0.858	0.622	0.681	0.788	0.618	0.777	0.742	0.577	0.458	0.668	0.858	0.707	0.579	0.610	0.595	0.846	0.855	0.781	0.828	0.884	1.024	0.582	0.481	0.367	0.281	0.314	0.342	0.293
630.0	181.2	198.0	197.7	154.2	127.9	121.0	71.56	59.42	82.54	112.3	143.0	152.5	149.9	99.15	44.21	21.48	12.08	59.32	511.1	347.8	6.885	1.289	1.150	0.952	0.785	0.853	0.784	0.648	0.694	0.718	0.760	0.914	0.757	0.824	0.815	0.821	0.799	0.657	0.651	0.694	0.637	0.623	0.538	0.641	0.699	0.728	0.703	0.755	0.777	0.684	0.614	0.606	0.664	0.594	0.632	0.673	0.547	0.371	0.459	0.672	0.633	0.559	0.601	0.508	0.711	0.774	0.772	0.787	0.713	0.873	0.735	0.497	0.425	0.285	0.268	0.252	0.204
635.0	149.1	176.0	167.5	134.7	111.0	110.6	64.83	56.64	76.05	103.5	133.6	138.1	127.7	105.1	49.84	22.60	11.46	17.98	149.1	591.3	57.95	1.452	1.017	0.898	0.694	0.660	0.617	0.690	0.577	0.539	0.649	0.655	0.733	0.849	0.760	0.744	0.546	0.599	0.544	0.511	0.603	0.464	0.447	0.641	0.579	0.680	0.601	0.703	0.652	0.532	0.529	0.464	0.523	0.480	0.582	0.610	0.432	0.361	0.375	0.443	0.528	0.640	0.526	0.534	0.576	0.647	0.659	0.530	0.604	0.732	0.712	0.629	0.408	0.277	0.263	0.193	0.211
640.0	129.3	158.8	147.1	118.1	95.53	105.7	60.33	51.48	73.17	98.46	124.8	128.4	116.5	102.7	57.02	23.32	12.59	9.947	39.58	443.7	287.2	3.062	1.053	0.960	0.793	0.723	0.726	0.609	0.531	0.508	0.539	0.609	0.615	0.662	0.572	0.644	0.571	0.554	0.517	0.468	0.538	0.526	0.359	0.539	0.474	0.617	0.572	0.550	0.537	0.481	0.541	0.461	0.465	0.504	0.568	0.560	0.387	0.367	0.379	0.341	0.438	0.642	0.640	0.583	0.637	0.584	0.613	0.583	0.563	0.654	0.609	0.657	0.462	0.364	0.269	0.181	0.180
645.0	122.1	140.9	131.6	102.5	86.66	96.98	58.22	49.67	67.90	93.15	116.2	119.1	107.3	92.35	65.22	25.53	13.93	9.275	13.33	189.0	502.2	24.93	1.093	0.792	0.723	0.653	0.746	0.565	0.523	0.514	0.509	0.628	0.513	0.657	0.547	0.508	0.545	0.543	0.474	0.442	0.406	0.602	0.492	0.429	0.440	0.527	0.418	0.523	0.518	0.450	0.470	0.424	0.450	0.475	0.525	0.554	0.333	0.341	0.267	0.294	0.405	0.572	0.543	0.556	0.653	0.567	0.579	0.541	0.615	0.611	0.551	0.512	0.487	0.427	0.245	0.181	0.173
650.0	108.6	130.9	119.7	88.78	80.82	83.34	53.69	49.65	67.53	91.28	108.6	112.8	104.2	84.25	70.05	27.93	14.74	9.084	8.084	53.71	484.1	69.37	1.453	0.935	0.718	0.592	0.598	0.599	0.537	0.425	0.598	0.547	0.433	0.563	0.505	0.427	0.467	0.429	0.437	0.435	0.277	0.422	0.681	0.380	0.497	0.443	0.425	0.441	0.496	0.417	0.359	0.405	0.448	0.461	0.405	0.463	0.392	0.308	0.315	0.254	0.445	0.500	0.482	0.517	0.565	0.518	0.472	0.456	0.650	0.479	0.539	0.496	0.530	0.478	0.263	0.184	0.200
