Sample:	'1
File name:	w101405»ôÆÂÇÅÎ÷Ö§Á÷.FD3
Run date:	'10:40:53, 10/15/2024
Operator:	horiz
Comment:	'

Instrument
Model:	F-2700 FL Spectrophotometer
Serial number:	23B8-004
ROM Version:	4J14000 07

Instrument parameters
Measurement type:	3-D scan
Data mode:	Fluorescence
EX  Start WL:	220.0 nm
EX  End WL:	600.0 nm
EX Sampling interval:	5.0 nm
EM  Start WL:	230.0 nm
EM  End WL:	650.0 nm
EM Sampling interval:	5.0 nm
Scan speed:	12000 nm/min
EX Slit:	5.0 nm
EM Slit:	5.0 nm
PMT Voltage:	700 V
Response:	Auto 
Corrected spectra:	Off
Contour interval:	50.000

Peak integration
Integration method:	Rectangular
Sensitivity:	1
Threshold:	1.000

Peaks
No.	ApexEX/EM(nm)	Height(Data)
1	225.0/640.0	61.55
2	230.0/575.0	54.25
3	230.0/625.0	60.72
4	235.0/340.0	2273
5	240.0/525.0	234.1
6	245.0/535.0	198.4
7	250.0/550.0	158.2
8	255.0/280.0	613.9
9	255.0/560.0	145.6
10	260.0/290.0	587.7
11	260.0/575.0	118.4
12	265.0/585.0	109.5
13	275.0/320.0	2635
14	275.0/615.0	171.3
15	280.0/315.0	2668
16	280.0/625.0	150.9
17	285.0/640.0	124.6
18	320.0/365.0	494.5
19	325.0/370.0	456.0
20	330.0/375.0	436.7
21	335.0/380.0	415.3
22	350.0/400.0	347.8
23	365.0/420.0	279.8
24	425.0/500.0	40.47
25	475.0/345.0	8.992
26	515.0/285.0	4.167
27	570.0/315.0	13.13
28	580.0/320.0	12.54
29	585.0/325.0	11.76

Wavelength data
No.	EX/EM(nm)	Height(Data)	

Data points
	220.0	225.0	230.0	235.0	240.0	245.0	250.0	255.0	260.0	265.0	270.0	275.0	280.0	285.0	290.0	295.0	300.0	305.0	310.0	315.0	320.0	325.0	330.0	335.0	340.0	345.0	350.0	355.0	360.0	365.0	370.0	375.0	380.0	385.0	390.0	395.0	400.0	405.0	410.0	415.0	420.0	425.0	430.0	435.0	440.0	445.0	450.0	455.0	460.0	465.0	470.0	475.0	480.0	485.0	490.0	495.0	500.0	505.0	510.0	515.0	520.0	525.0	530.0	535.0	540.0	545.0	550.0	555.0	560.0	565.0	570.0	575.0	580.0	585.0	590.0	595.0	600.0
230.0	48.55	1543	5758	2557	114.9	12.53	10.11	9.214	8.447	7.711	7.822	7.430	7.155	6.527	5.597	5.199	4.543	4.118	3.907	3.585	3.380	3.024	2.993	2.849	2.790	2.602	2.205	2.281	2.118	2.014	2.023	1.992	1.915	1.878	1.710	1.546	1.429	1.299	1.270	1.119	1.167	1.108	1.144	1.035	0.991	0.937	2.235	10.00	21.16	17.75	7.528	1.761	0.717	0.719	0.642	0.602	0.669	0.630	0.572	0.551	0.538	0.489	0.510	0.453	0.483	0.457	0.437	0.452	0.417	0.411	0.378	0.359	0.375	0.329	0.296	0.314	0.327
235.0	95.38	420.1	3443	7102	3379	192.5	15.05	11.09	11.60	9.026	10.68	7.954	7.827	6.650	6.241	5.081	4.648	4.306	4.253	3.782	3.644	3.173	2.953	2.840	2.736	2.741	2.207	2.181	2.296	1.989	1.954	1.920	1.828	1.799	1.696	1.464	1.424	1.471	1.278	1.132	1.217	1.031	1.097	1.143	1.131	1.093	1.250	3.017	7.863	16.66	27.58	25.39	13.82	3.218	0.770	0.697	0.797	0.726	0.588	0.575	0.556	0.477	0.471	0.436	0.448	0.478	0.405	0.412	0.352	0.377	0.372	0.322	0.359	0.326	0.368	0.287	0.355
240.0	120.8	168.8	1007	6217	9999.9	2691	89.43	16.76	13.53	11.78	10.63	9.713	8.079	7.824	6.315	5.484	4.804	4.277	4.453	4.060	3.436	3.336	3.515	2.848	3.153	2.928	2.366	2.561	2.250	2.118	2.105	2.049	1.803	1.839	1.700	1.722	1.734	1.533	1.284	1.136	1.150	1.069	1.231	0.961	1.259	1.177	1.203	1.450	2.428	5.297	15.00	36.71	46.63	25.32	11.44	1.806	0.770	0.814	0.637	0.652	0.486	0.566	0.487	0.465	0.553	0.558	0.491	0.467	0.365	0.424	0.411	0.327	0.382	0.376	0.330	0.353	0.335
245.0	92.62	185.0	300.2	2052	9999.9	9999.9	469.8	41.51	17.77	14.23	11.34	11.19	8.945	8.025	7.688	5.840	5.034	4.622	4.458	4.269	3.935	3.365	3.299	3.119	3.114	2.968	2.473	2.624	2.080	2.270	1.973	2.004	1.834	1.917	1.635	1.714	1.666	1.453	1.269	1.315	1.154	1.119	1.184	1.040	1.025	1.253	1.327	1.483	1.243	1.856	4.110	12.60	32.81	57.66	58.09	22.68	7.281	1.120	0.681	0.621	0.579	0.575	0.632	0.545	0.588	0.526	0.523	0.446	0.422	0.396	0.372	0.353	0.451	0.381	0.291	0.351	0.395
250.0	57.24	141.9	262.5	569.9	3175	9999.9	9999.9	4944	131.2	21.63	16.80	14.48	11.44	8.957	8.203	6.809	5.962	5.281	5.136	4.673	4.068	3.659	3.388	3.271	3.194	3.126	2.838	2.892	2.520	2.582	2.063	1.960	1.962	1.898	1.667	1.730	1.798	1.458	1.487	1.330	1.172	1.169	1.127	1.082	1.164	1.101	1.169	1.524	1.529	1.470	1.797	3.552	8.371	19.40	37.59	56.60	56.42	59.88	16.70	6.973	1.124	0.669	0.685	0.624	0.656	0.521	0.473	0.459	0.433	0.467	0.453	0.416	0.418	0.384	0.327	0.359	0.402
255.0	56.13	68.08	184.4	401.7	823.3	2524	9999.9	9999.9	2487	155.3	28.59	19.71	15.59	12.47	9.459	7.898	6.737	6.285	5.309	5.372	4.447	3.761	3.400	3.576	3.180	3.201	3.002	3.148	2.765	2.807	2.333	2.079	2.149	1.839	1.882	1.611	1.689	1.465	1.531	1.421	1.266	1.234	1.162	1.161	1.253	1.009	1.095	1.148	1.218	1.500	2.098	2.285	2.680	5.153	9.140	14.07	26.02	71.33	118.1	108.4	25.99	8.236	0.928	0.768	0.614	0.505	0.634	0.579	0.494	0.483	0.506	0.470	0.444	0.422	0.374	0.335	0.425
260.0	62.76	54.77	85.87	308.1	455.1	641.3	3081	9999.9	9999.9	2020	93.16	27.75	19.57	15.93	11.36	9.565	7.873	6.738	5.926	5.627	5.020	4.128	3.829	3.663	3.490	3.528	3.128	3.024	3.022	3.034	2.511	2.136	2.371	1.854	1.926	1.745	1.689	1.618	1.619	1.394	1.430	1.324	1.299	1.185	1.308	1.120	1.141	1.111	0.924	1.088	1.541	2.408	2.483	2.384	2.865	3.862	6.738	19.81	56.61	118.2	155.4	113.5	20.95	4.206	0.783	0.695	0.701	0.593	0.523	0.500	0.497	0.511	0.471	0.412	0.422	0.347	0.474
265.0	67.04	51.69	49.48	150.8	422.4	353.9	759.0	4549	9999.9	9999.9	1462	51.42	25.99	20.45	15.32	11.39	8.995	7.761	7.092	6.160	4.682	4.471	4.751	3.942	3.738	3.610	3.293	3.098	3.242	3.003	2.688	2.535	2.418	2.120	1.904	1.786	1.639	1.835	1.624	1.670	1.367	1.420	1.296	1.136	1.313	1.177	1.099	1.055	0.903	0.931	1.001	1.605	2.325	2.973	2.186	1.762	2.242	5.132	13.85	36.47	96.22	174.5	180.7	32.53	14.67	1.568	0.859	0.682	0.655	0.621	0.469	0.537	0.515	0.414	0.476	0.490	0.463
270.0	71.49	64.80	55.91	73.20	206.1	424.4	415.9	1119	5091	9999.9	9999.9	5497	95.35	32.11	22.19	14.89	11.74	9.657	8.163	7.308	6.039	5.397	4.852	4.383	3.997	4.049	3.616	3.379	3.245	3.121	2.994	2.783	2.587	2.467	2.137	1.961	1.830	1.807	1.725	1.642	1.602	1.429	1.473	1.352	1.491	1.301	1.170	1.173	1.045	0.893	0.925	1.150	1.355	2.038	2.513	2.703	2.360	2.289	3.943	9.017	23.32	52.33	99.14	144.1	180.8	135.4	81.28	10.99	1.868	0.861	0.687	0.638	0.651	0.523	0.535	0.542	0.511
275.0	108.1	105.3	96.51	75.17	88.19	210.7	545.3	511.2	1219	3072	9999.9	9999.9	7325	107.2	33.91	22.45	16.39	12.76	10.55	9.274	6.890	6.432	5.675	5.336	4.756	4.382	4.088	3.949	3.368	3.350	3.207	2.791	2.868	2.678	2.466	2.073	2.061	1.897	1.705	1.713	1.562	1.581	1.548	1.567	1.538	1.315	1.361	1.327	1.207	1.052	1.012	0.946	1.041	1.246	1.287	1.859	2.953	3.927	3.175	2.954	6.083	12.58	22.94	34.01	58.04	129.2	259.0	240.3	32.45	15.47	1.448	0.905	0.775	0.689	0.658	0.598	0.584
280.0	146.3	143.9	143.6	98.64	70.68	101.3	346.4	613.9	444.4	800.8	4352	9999.9	9999.9	1179	73.47	32.52	22.64	16.53	12.89	10.84	8.278	7.294	6.125	5.493	5.181	5.209	4.400	4.555	3.554	3.688	3.533	2.963	2.894	2.755	2.653	2.328	2.086	2.005	1.708	1.856	1.686	1.601	1.499	1.570	1.670	1.462	1.465	1.561	1.436	1.302	1.143	0.998	1.030	1.123	1.040	1.373	1.773	3.006	4.026	3.511	2.701	3.810	6.023	8.653	14.14	32.98	97.06	213.9	297.9	226.3	27.73	8.445	1.196	0.873	0.804	0.765	0.604
285.0	176.3	204.8	193.2	120.3	84.09	79.17	161.8	553.3	417.7	329.2	1149	7243	9999.9	9999.9	812.7	50.62	31.35	20.81	16.72	12.99	10.14	8.101	7.280	6.397	5.691	5.363	4.927	4.930	3.871	3.932	4.127	3.411	3.152	3.153	2.972	2.451	2.552	2.066	1.956	1.848	1.864	1.677	1.699	1.714	1.910	1.712	1.649	1.682	1.737	1.495	1.377	1.203	1.239	1.026	1.074	1.185	1.519	1.832	2.540	4.167	4.135	2.967	2.505	3.119	4.286	8.648	23.20	56.83	141.7	299.6	274.7	182.7	21.38	3.064	1.141	0.926	0.743
290.0	228.0	283.2	268.8	179.6	110.9	95.60	118.5	271.8	587.7	548.8	469.8	1880	7815	9999.9	9999.9	3184	67.64	32.57	23.27	17.23	12.58	10.48	8.706	7.064	6.580	6.001	5.491	5.254	4.760	4.074	4.047	3.874	3.671	3.284	3.060	2.831	2.767	2.552	2.174	2.030	1.976	1.810	1.812	1.881	1.966	1.932	1.921	1.975	1.977	1.681	1.562	1.376	1.370	1.212	1.254	1.336	1.451	1.517	1.636	2.227	3.160	3.860	4.218	3.549	2.711	3.372	6.658	14.14	33.62	78.87	129.1	217.8	237.5	196.7	125.4	14.80	4.233
295.0	273.1	359.0	345.1	244.1	164.8	139.8	162.4	223.0	369.9	806.0	781.3	767.6	2039	3479	9999.9	9999.9	4430	74.54	36.25	25.60	17.21	13.80	11.36	9.673	7.795	7.186	6.377	5.779	5.031	4.643	4.399	4.163	4.016	3.625	3.309	2.748	2.988	2.805	2.434	2.211	2.237	1.837	2.010	2.041	2.052	2.231	2.242	2.390	2.271	1.941	1.815	1.675	1.660	1.396	1.561	1.638	1.653	1.681	1.781	2.183	2.208	2.496	3.480	5.300	5.542	3.902	3.674	5.230	9.370	19.38	30.43	50.72	64.67	131.1	307.8	284.8	199.5
300.0	347.6	444.7	471.5	354.3	248.2	238.8	294.1	348.5	394.1	777.3	1320	979.2	1016	1221	5014	9999.9	9999.9	677.4	64.37	35.79	23.43	17.29	13.46	11.02	9.263	8.398	6.898	6.848	6.074	4.973	4.847	4.263	4.275	3.701	3.515	3.064	3.206	2.978	2.576	2.385	2.389	2.078	2.217	2.212	2.296	2.423	2.351	2.644	2.565	2.334	2.053	2.125	1.971	1.753	1.969	1.914	2.199	2.192	2.611	2.718	2.673	2.919	3.422	4.620	6.114	6.991	6.415	5.039	5.442	7.290	9.551	14.28	16.95	32.79	93.84	210.8	394.8
305.0	469.5	606.2	649.8	519.1	404.4	422.9	500.4	706.5	912.2	1253	1824	1849	1471	1224	1919	8660	9999.9	9999.9	517.5	54.49	31.37	22.61	16.93	12.80	11.21	10.15	8.031	7.308	7.002	5.548	5.166	4.963	4.774	4.178	3.740	3.454	3.507	2.925	2.952	2.859	2.707	2.457	2.368	2.458	2.462	2.830	2.809	3.219	3.124	2.747	2.470	2.697	2.429	2.464	2.653	2.685	3.152	3.279	3.933	4.375	4.784	4.787	5.694	6.367	7.339	9.066	10.33	10.32	8.263	7.507	7.534	8.346	8.323	12.26	25.51	54.02	142.6
310.0	537.3	783.7	863.7	697.4	567.7	615.9	778.2	1031	1305	1665	2135	2524	2412	1699	1535	2788	9257	9999.9	9999.9	2325	57.28	35.34	24.31	17.55	14.31	12.01	9.567	8.929	7.799	6.826	6.113	5.637	5.137	4.709	4.135	3.574	4.035	3.477	3.191	3.167	2.880	2.741	2.759	2.805	2.874	3.200	3.427	3.896	3.829	3.396	3.170	3.471	3.182	3.128	3.353	3.544	4.091	4.785	5.264	5.634	6.310	6.718	7.905	8.608	9.084	9.810	10.59	11.78	12.16	11.55	10.30	9.272	8.112	9.143	11.39	17.23	36.53
315.0	639.8	951.6	1092	898.7	724.9	767.0	954.1	1206	1456	1833	2315	2559	2668	2291	1649	1526	2909	3560	9999.9	9999.9	3542	65.66	36.06	25.29	18.90	15.36	12.17	11.29	8.669	7.502	7.470	6.426	5.700	5.131	4.569	3.833	4.379	4.054	3.395	3.429	3.227	3.044	3.232	3.070	3.200	3.764	3.974	4.665	4.693	4.213	3.923	4.069	3.987	3.865	3.957	4.519	4.764	5.328	6.214	6.290	6.904	7.764	8.144	9.193	10.06	10.61	10.91	11.76	11.98	12.25	13.13	12.31	10.08	9.293	9.213	9.573	12.96
320.0	719.8	1098	1266	1018	814.1	834.7	1020	1262	1515	1905	2425	2635	2608	2499	1933	1323	1534	1274	4679	9999.9	9999.9	522.4	58.94	34.02	24.51	18.61	14.13	13.34	10.46	8.727	8.148	7.100	6.344	5.743	4.734	4.372	4.740	4.529	3.702	3.577	3.457	3.294	3.358	3.262	3.386	4.122	4.673	5.326	5.218	4.374	4.323	4.353	4.648	4.116	4.401	4.676	5.313	5.867	6.426	6.590	6.877	8.000	8.598	9.517	10.13	10.75	11.26	11.72	12.31	11.68	12.44	12.37	12.54	11.27	8.869	7.822	8.423
325.0	739.4	1243	1519	1192	878.9	856.1	1024	1251	1463	1823	2345	2537	2474	2276	2105	1355	1190	750.4	1267	7655	9999.9	9999.9	442.8	51.10	32.26	23.56	17.40	14.74	12.20	10.10	8.641	7.875	6.822	5.821	5.268	4.648	4.912	4.335	3.810	3.613	3.696	3.377	3.523	3.296	3.710	4.311	4.917	5.765	6.230	5.327	4.801	5.034	4.831	4.749	4.536	4.819	5.325	5.919	6.364	6.809	7.020	7.841	8.493	9.326	9.790	10.24	10.90	11.40	11.70	11.38	11.70	11.19	11.29	11.76	10.23	8.124	7.123
330.0	846.8	1469	1881	1634	1181	954.0	988.5	1180	1334	1647	2162	2321	2283	2048	1847	1491	1146	637.7	506.1	1908	7462	9999.9	9999.9	8797	53.61	35.94	24.14	19.35	14.58	12.76	10.27	8.882	7.873	6.985	5.694	5.146	5.082	4.806	4.253	3.873	3.593	3.446	3.579	3.735	3.996	4.777	5.359	6.729	6.994	6.503	6.119	6.322	5.739	5.250	4.911	4.990	5.500	5.772	6.174	6.340	6.379	7.059	7.908	8.421	9.001	9.345	9.993	10.56	10.86	10.75	10.63	10.34	9.775	10.37	9.625	9.011	8.199
335.0	930.7	1601	2192	2116	1608	1125	982.2	1110	1232	1503	1984	2129	2130	1934	1662	1368	1312	716.0	401.5	630.9	1823	3098	9999.9	9999.9	3350	61.08	34.51	27.05	19.09	15.46	12.34	10.86	9.137	7.999	6.402	5.656	5.138	4.844	4.360	4.144	3.881	3.578	3.701	3.801	4.168	5.114	5.755	6.953	8.052	7.603	7.580	8.222	7.349	6.355	5.683	5.327	5.448	5.581	5.910	6.156	5.714	6.717	7.382	8.025	8.294	8.463	9.188	10.01	9.932	10.27	9.867	9.609	9.169	8.998	8.595	7.925	8.319
340.0	917.3	1629	2253	2273	1751	1171	967.4	1050	1145	1362	1809	1943	1961	1796	1539	1222	1211	857.1	420.2	363.7	575.3	841.8	4217	9999.9	9999.9	2768	54.23	35.90	24.55	18.58	14.34	11.91	10.32	8.771	7.509	6.154	5.718	5.317	4.626	4.295	4.011	3.946	3.777	3.900	4.314	5.319	5.950	7.218	8.252	7.962	8.243	8.916	7.881	6.973	6.041	5.416	5.468	5.696	5.626	5.704	5.857	6.293	6.855	7.638	7.662	7.888	8.961	9.037	9.588	9.703	9.197	9.296	8.645	8.626	8.072	7.590	6.975
345.0	857.5	1559	2229	2224	1717	1141	931.4	959.4	1032	1241	1605	1715	1747	1612	1403	1104	994.9	871.2	522.1	322.0	304.8	335.9	1091	6403	9999.9	9999.9	415.7	51.71	31.82	23.30	17.21	13.36	10.86	9.701	7.863	6.381	5.871	5.378	4.780	4.183	4.199	3.665	3.851	3.986	4.349	5.179	5.631	7.088	7.959	7.800	8.191	8.992	7.496	6.934	5.925	5.053	5.556	5.118	5.654	5.567	5.506	5.579	6.486	6.679	7.146	7.237	7.992	8.124	8.560	8.761	8.680	8.320	8.484	8.032	7.438	6.396	6.527
350.0	795.5	1411	2062	2128	1697	1151	885.2	897.7	943.4	1094	1381	1472	1521	1421	1245	1002	864.0	718.3	617.9	434.1	282.7	243.7	389.1	1569	6513	9999.9	9999.9	9804	51.85	32.96	23.90	17.20	12.98	10.80	8.697	6.957	6.382	5.755	4.948	4.542	4.318	3.766	3.994	4.059	4.248	4.809	5.414	6.710	7.526	7.328	7.704	8.564	7.603	6.920	5.804	4.911	5.171	5.109	5.070	5.033	5.332	5.338	5.712	6.065	6.214	6.642	6.925	7.111	7.386	7.653	7.657	7.276	7.419	7.454	6.660	6.188	5.900
355.0	713.9	1270	1838	1945	1648	1137	863.5	862.0	875.7	984.5	1199	1274	1312	1242	1108	920.5	796.5	632.9	540.9	552.4	384.2	254.6	250.4	476.5	1546	2764	9999.9	9999.9	3324	57.75	33.38	23.02	16.80	12.86	10.24	7.642	7.012	6.500	5.502	4.904	4.761	4.110	3.985	4.014	4.090	4.634	5.035	6.533	7.138	7.044	7.074	8.318	7.227	6.842	5.909	4.729	4.945	4.811	5.015	5.010	5.004	4.722	4.880	5.609	5.480	5.648	6.132	6.388	6.428	6.602	6.956	6.578	6.432	6.381	6.324	5.579	5.638
360.0	662.6	1110	1619	1766	1512	1074	836.1	828.1	834.2	906.3	1078	1137	1160	1122	1008	862.3	747.0	606.4	501.8	500.8	489.1	309.8	232.7	245.6	448.8	708.3	3321	9999.9	9999.9	2992	53.58	31.24	22.07	16.22	11.98	9.350	7.846	7.111	5.783	5.189	4.847	4.456	4.129	4.026	4.156	4.520	4.996	6.068	6.654	6.598	6.478	7.456	7.032	6.551	5.660	4.724	4.838	4.556	4.863	4.809	4.785	4.542	4.981	5.354	5.572	5.390	5.600	5.569	5.629	5.818	6.301	5.879	5.570	5.873	5.570	5.326	5.488
365.0	600.3	1015	1452	1598	1420	1027	810.1	794.1	791.4	862.4	999.6	1022	1047	1013	936.7	806.4	713.7	595.4	495.4	449.5	494.5	413.9	263.1	208.5	216.4	253.7	830.6	4979	9999.9	9999.9	2445	48.32	27.69	20.22	14.04	10.27	8.913	7.562	6.437	5.919	4.918	4.527	4.117	4.114	4.114	4.205	4.600	5.488	6.091	6.255	6.152	7.177	6.201	6.379	5.322	4.782	4.732	4.393	4.568	4.659	4.485	4.535	4.787	4.941	5.078	5.110	5.184	5.335	5.653	5.216	5.456	5.647	5.403	5.195	5.253	5.272	4.975
370.0	536.0	889.3	1272	1421	1298	1002	805.1	766.1	756.8	812.3	909.2	938.6	946.5	919.0	851.5	754.0	682.6	591.8	507.1	451.5	433.9	456.0	376.5	242.5	188.9	167.9	275.8	1209	5141	9999.9	9999.9	9999.9	157.9	30.01	19.96	13.76	11.08	9.059	7.367	6.366	5.486	4.841	4.475	4.320	4.222	4.304	4.491	5.169	5.675	5.418	5.680	6.738	6.084	6.099	5.289	4.705	4.708	4.599	4.489	4.463	4.335	4.510	4.601	4.691	4.722	4.803	4.921	4.975	5.128	4.981	5.010	5.230	5.194	5.175	4.979	5.085	4.902
375.0	483.4	762.5	1107	1268	1184	932.5	781.8	744.4	733.9	773.5	831.7	856.5	862.9	834.3	786.5	707.7	651.8	589.8	518.5	463.7	425.0	403.0	436.7	352.1	219.5	170.5	167.3	360.1	1224	2590	9999.9	9999.9	9999.9	50.75	29.83	19.04	14.84	11.33	8.900	7.025	6.292	5.096	4.763	4.467	4.476	4.516	4.538	5.184	5.212	4.794	5.357	6.306	5.529	5.758	5.339	4.372	4.672	4.376	4.403	3.947	4.148	4.246	4.441	4.615	4.473	4.592	4.575	4.359	4.983	4.696	4.869	4.693	4.837	4.745	4.448	4.341	4.345
380.0	446.0	704.0	971.8	1138	1092	922.1	754.6	734.7	710.3	729.9	786.1	801.5	800.3	777.3	733.0	671.2	627.1	575.3	524.7	474.6	433.0	397.3	401.1	415.3	281.7	192.1	158.3	182.5	355.5	658.2	3061	9999.9	9999.9	2715	46.62	25.21	18.89	14.11	9.978	8.015	6.556	5.912	5.275	4.617	4.531	4.646	4.414	4.897	5.079	4.865	5.036	5.867	5.305	5.466	5.247	4.316	4.326	4.507	4.354	3.988	4.064	4.200	4.170	4.175	4.401	4.243	4.208	4.202	4.281	4.457	4.849	4.572	4.625	4.413	4.596	4.260	4.627
385.0	411.2	675.7	920.5	1054	1034	873.4	752.7	714.6	697.5	707.4	751.2	755.5	761.2	739.5	691.6	644.2	608.1	567.1	523.4	483.9	442.5	406.7	377.4	402.1	361.4	233.0	175.1	155.5	173.1	225.6	763.0	3920	9999.9	9999.9	2244	39.97	23.79	17.76	12.16	9.011	7.260	6.446	5.596	4.825	4.825	4.458	4.406	4.875	4.984	4.584	4.557	5.758	5.324	5.065	4.957	4.412	4.601	4.455	4.389	3.959	3.973	4.165	4.166	4.357	4.195	4.113	4.065	4.105	4.072	3.988	4.524	4.420	4.346	4.307	4.456	4.167	4.294
390.0	407.2	617.0	832.5	966.0	963.5	835.5	728.6	697.2	683.7	683.3	713.2	711.7	713.2	686.9	657.5	611.8	587.1	553.0	517.1	484.0	451.9	417.0	386.2	364.2	370.8	323.4	222.3	171.6	149.3	142.3	246.6	948.4	4076	9999.9	9999.9	8789	143.4	25.83	16.51	11.92	9.297	7.072	6.254	5.576	5.379	4.730	4.470	4.748	4.683	4.602	4.557	5.319	4.944	4.919	4.808	4.427	4.563	4.370	4.330	3.997	3.985	3.996	4.071	4.137	4.113	4.091	3.830	3.971	3.954	4.130	3.937	4.085	3.989	4.158	4.100	4.116	4.111
395.0	381.0	567.7	775.3	886.0	897.4	805.5	725.1	695.9	672.9	656.2	689.5	682.6	678.8	650.7	618.9	577.6	560.8	530.2	505.2	479.6	456.5	430.3	395.9	360.7	341.6	350.0	313.5	211.5	166.5	141.1	143.0	281.9	967.3	2451	9999.9	9999.9	9999.9	183.7	24.64	15.84	12.49	8.998	7.415	6.173	5.755	5.176	4.712	4.715	4.931	4.513	4.399	5.083	4.860	5.231	4.579	4.474	4.620	4.469	4.361	4.128	4.075	4.019	3.918	3.868	3.866	3.758	3.942	3.757	3.870	3.993	3.945	3.756	3.952	3.786	3.977	4.084	4.024
400.0	377.8	536.1	728.2	821.4	846.7	775.1	709.6	678.5	662.9	652.4	667.4	657.4	653.7	626.3	596.2	559.7	539.3	518.5	500.1	475.5	453.0	429.7	403.0	368.1	338.4	327.1	347.8	267.1	189.3	155.3	129.6	140.9	276.0	602.8	2750	9999.9	9999.9	2437	40.15	20.48	14.95	10.79	8.372	7.095	6.339	5.512	5.089	5.124	4.941	4.431	4.463	5.015	4.887	4.948	4.336	4.427	4.580	4.628	4.439	4.126	3.888	3.980	3.766	3.591	3.683	4.046	3.690	3.604	3.701	3.896	3.771	3.694	4.096	3.622	3.928	4.007	3.972
405.0	351.2	498.5	686.3	788.3	803.9	754.2	706.2	657.2	640.7	639.6	640.7	631.7	632.8	601.3	580.5	540.4	527.6	507.9	487.6	466.5	448.3	428.1	405.5	375.6	345.6	319.9	330.4	319.0	222.8	170.1	137.5	115.3	126.8	188.5	666.4	3328	9999.9	9999.9	2029	33.84	18.14	12.87	9.689	7.598	6.702	5.791	5.581	5.649	4.930	4.248	4.329	5.237	4.690	4.889	4.364	4.325	4.334	4.224	4.066	3.907	3.981	3.874	3.832	3.772	3.672	3.893	3.800	3.547	3.515	3.705	3.530	3.781	3.794	3.857	3.716	3.854	3.490
410.0	327.7	492.6	654.0	745.6	773.0	725.1	679.9	650.4	628.7	613.0	615.3	612.2	599.1	572.4	550.1	514.2	498.4	484.4	465.8	453.4	435.2	418.2	404.3	381.1	355.0	323.4	304.7	311.4	287.7	208.8	153.8	120.8	101.6	100.8	196.5	787.8	3533	9999.9	9999.9	8173	128.3	18.27	12.61	9.952	7.679	6.662	5.877	5.612	5.234	4.541	4.372	4.860	4.693	4.717	4.563	4.323	4.434	4.230	4.153	3.950	3.969	4.037	3.991	3.638	3.721	3.577	3.710	3.597	3.546	3.646	3.635	3.604	3.589	3.674	3.677	3.528	3.520
415.0	311.6	450.3	601.6	693.6	720.1	690.0	665.3	638.4	611.3	601.6	594.7	589.7	567.2	540.6	515.7	488.3	465.7	457.2	442.3	430.0	414.6	404.5	395.1	377.8	353.1	327.5	301.5	284.9	291.8	265.8	182.2	133.1	105.1	86.91	94.47	216.8	824.9	2388	9999.9	9999.9	9999.9	38.96	18.60	12.60	9.558	8.134	6.717	5.981	5.755	4.795	4.321	4.761	4.716	4.394	4.551	4.409	4.476	4.365	4.115	4.106	3.798	3.712	4.088	3.917	3.588	3.696	3.450	3.385	3.524	3.584	3.298	3.518	3.564	3.432	3.560	3.498	3.269
420.0	310.1	435.9	566.1	656.1	690.3	673.9	647.1	606.8	592.6	587.6	578.0	560.4	547.1	531.1	494.8	464.1	446.9	440.3	420.7	411.6	399.5	389.7	387.6	369.6	349.7	325.6	298.6	276.7	268.3	279.8	216.5	146.8	110.4	87.70	74.94	91.33	220.4	568.7	2588	9999.9	9999.9	2221	35.02	16.40	11.54	9.090	7.242	6.434	5.612	4.773	4.455	4.849	4.752	4.502	4.567	4.136	4.433	4.111	4.274	4.217	3.866	3.778	4.082	3.619	3.633	3.648	3.329	3.310	3.302	3.455	3.370	3.257	3.527	3.225	3.278	3.432	3.226
425.0	280.1	414.5	555.0	635.4	652.5	658.4	639.7	605.1	593.8	570.2	567.6	546.0	530.2	511.2	477.3	443.1	426.4	416.7	404.4	397.4	385.0	377.9	370.0	356.1	341.8	321.5	299.0	275.9	256.2	257.9	246.2	170.5	117.9	91.30	73.15	65.98	85.99	159.8	610.5	3058	9999.9	9999.9	1867	29.65	14.96	10.43	8.169	6.764	5.798	5.042	4.535	5.078	4.838	4.678	4.362	4.565	4.429	4.368	4.287	4.047	3.925	3.770	3.993	3.613	3.564	3.598	3.340	3.173	3.248	3.305	3.109	3.191	3.196	3.191	3.087	3.139	2.959
430.0	367.0	396.0	518.3	594.4	631.1	623.9	615.5	593.7	582.2	559.7	548.7	531.1	512.1	486.4	445.6	418.7	407.3	392.6	382.9	374.8	364.1	361.6	355.0	348.2	334.9	317.0	295.6	275.1	253.8	237.8	233.4	204.8	141.4	100.1	79.46	64.03	59.63	69.88	165.2	713.0	3204	9999.9	9999.9	7287	115.4	16.03	10.78	8.587	6.791	5.497	4.963	5.236	4.831	4.834	4.635	4.692	4.388	4.378	4.199	3.982	3.904	3.761	3.782	3.611	3.431	3.589	3.389	3.091	3.156	3.243	3.114	3.150	3.018	3.182	2.940	2.828	3.084
435.0	640.9	400.4	493.7	559.8	600.3	598.5	600.2	589.9	566.3	541.9	538.7	511.9	485.5	459.4	421.9	399.2	382.0	371.0	362.4	352.6	347.0	343.5	338.7	330.3	321.7	307.0	289.0	274.4	253.4	232.4	210.9	201.6	178.2	119.9	86.55	69.03	57.73	51.74	66.77	185.6	739.4	2345	9766	9999.9	9999.9	35.50	16.27	10.93	8.649	6.510	5.576	5.945	5.154	4.653	4.801	4.720	4.784	4.590	4.105	4.145	3.884	3.872	3.819	3.662	3.390	3.671	3.500	3.254	2.992	3.202	2.973	3.056	3.105	2.854	3.010	2.906	2.967
440.0	944.0	494.1	469.2	540.6	579.1	582.5	587.9	579.0	560.5	537.4	519.2	504.8	471.1	443.2	409.8	382.0	361.0	350.9	347.1	337.5	332.3	328.8	322.5	318.1	309.8	298.2	283.3	266.8	250.6	231.0	205.6	186.3	184.9	141.5	95.59	73.07	60.45	49.69	47.78	68.31	189.8	549.4	2539	9999.9	9999.9	2011	29.83	14.78	10.35	7.780	6.324	6.126	5.403	5.035	4.898	4.829	5.207	4.771	4.521	4.143	3.717	3.924	3.699	3.531	3.589	3.590	3.290	3.255	3.066	3.125	2.976	2.850	3.079	2.588	2.890	2.625	2.812
445.0	1127	874.9	458.8	519.4	559.5	574.6	569.0	575.1	558.1	521.0	501.9	487.2	453.8	422.7	390.6	361.6	344.8	335.3	331.7	321.9	313.8	313.3	309.0	307.0	295.7	289.1	273.6	260.4	247.1	228.5	202.6	177.5	168.8	160.0	110.4	77.60	63.93	51.45	43.39	43.06	67.31	145.2	594.1	3176	9999.9	9999.9	1530	26.29	13.37	8.777	7.272	6.857	5.967	5.354	4.970	4.893	5.026	4.492	4.411	4.466	3.923	3.633	3.704	3.804	3.491	3.300	3.189	3.122	2.817	2.986	2.861	2.708	2.907	2.777	2.649	2.689	2.788
450.0	783.1	1946	783.9	493.0	526.2	537.9	537.1	535.4	521.6	497.2	478.8	466.5	430.7	398.6	365.2	336.6	320.9	312.0	305.8	297.7	290.8	291.4	286.9	283.4	276.5	271.5	259.6	249.8	236.6	219.5	198.0	172.6	153.0	146.9	131.1	92.98	68.67	54.98	44.96	39.54	40.45	55.01	154.2	736.3	3327	9999.9	9999.9	6420	94.84	13.37	9.319	8.374	6.752	5.854	5.376	5.081	5.139	4.649	4.604	4.269	3.965	3.699	3.618	3.505	3.544	3.347	3.173	3.053	2.938	2.902	2.775	2.685	2.908	2.696	2.636	2.735	2.699
455.0	362.9	2193	2234	523.5	486.1	500.3	499.6	506.3	492.8	479.8	456.1	430.3	393.4	370.6	340.3	309.4	295.7	281.6	281.5	270.2	263.4	260.3	265.1	259.2	254.1	249.6	239.9	231.4	220.4	209.9	189.9	164.6	144.5	128.1	123.8	110.8	77.70	58.61	46.82	40.38	35.21	35.41	55.22	183.9	763.2	2362	9266	9999.9	8707	26.69	13.07	10.26	8.150	6.759	5.908	5.457	5.474	4.694	4.352	4.284	4.050	3.714	3.677	3.300	3.525	2.977	2.949	3.135	2.988	2.559	2.652	2.676	2.609	2.743	2.572	2.517	2.487
460.0	238.8	1436	3889	841.1	463.9	478.0	471.3	474.7	466.6	453.7	435.7	404.9	370.8	344.8	314.6	287.2	273.9	262.4	255.8	251.1	241.5	240.8	244.9	240.8	234.3	230.5	226.5	219.1	210.3	199.4	181.1	158.5	138.7	120.2	110.3	111.6	89.31	62.17	48.70	40.73	34.67	30.49	33.03	60.34	189.1	548.4	2365	9999.9	9999.9	1499	23.98	13.50	9.492	7.804	6.728	5.866	5.713	4.863	4.662	4.195	4.002	3.863	3.624	3.427	3.518	2.860	3.184	2.884	2.992	2.676	2.588	2.586	2.544	2.676	2.301	2.378	2.471
465.0	219.0	683.7	4414	2300	459.3	447.7	454.9	448.0	447.5	427.3	418.7	383.0	352.3	322.5	293.8	265.6	254.5	245.2	236.8	232.5	223.4	221.7	227.5	222.8	218.8	214.3	211.7	204.9	197.6	189.1	173.0	154.2	132.3	115.7	101.3	98.70	97.48	68.91	50.33	40.89	34.98	30.21	27.96	32.77	59.99	141.2	551.8	2994	9999.9	9999.9	1301	24.77	11.70	9.007	7.819	6.268	6.081	5.345	5.008	4.384	4.251	4.086	3.600	3.471	3.329	3.012	3.160	2.860	2.772	2.599	2.734	2.703	2.491	2.655	2.375	2.274	2.281
470.0	220.5	360.4	2548	4976	1136	408.4	412.1	411.2	407.2	389.1	377.7	354.6	324.6	296.9	267.5	242.3	230.8	221.2	212.5	206.3	200.6	200.3	200.9	198.9	195.4	192.2	189.8	185.5	181.4	172.6	160.3	143.0	125.8	108.9	95.46	85.85	85.69	78.26	57.20	42.49	35.10	30.43	27.06	25.99	30.71	47.82	139.6	689.6	3164	9899	9999.9	5652	93.74	12.87	9.415	7.700	6.936	5.587	5.033	4.455	4.230	3.926	3.715	3.404	3.194	3.063	2.925	2.887	2.611	2.515	2.552	2.417	2.327	2.281	2.244	2.203	2.237
475.0	209.8	251.8	861.5	5018	3835	445.0	369.9	375.1	370.8	348.2	343.3	320.8	295.0	264.1	238.9	215.9	203.5	197.2	187.3	186.6	178.4	178.3	175.5	176.6	174.3	171.7	167.0	165.0	161.4	155.8	144.5	131.9	116.2	102.4	88.60	78.26	70.15	70.93	65.02	46.93	35.45	29.96	25.86	23.27	23.26	25.77	44.86	167.5	719.1	2287	6752	9999.9	6745	30.23	11.99	8.929	7.565	6.164	5.117	4.448	4.249	3.775	3.596	3.245	3.159	2.768	2.660	2.699	2.410	2.297	2.399	2.243	2.173	2.248	2.028	2.094	2.205
480.0	202.2	230.0	403.6	3009	6472	633.7	346.8	346.7	344.2	335.2	315.4	298.0	271.5	249.2	218.7	200.3	190.7	181.3	173.6	170.7	164.4	163.2	160.9	161.7	158.5	155.3	150.9	153.7	147.8	144.4	136.5	121.5	110.6	97.18	85.12	74.52	65.12	61.81	64.41	53.06	37.26	29.97	26.44	23.05	20.80	20.20	23.19	50.42	172.8	523.5	1683	9005	9999.9	1749	25.75	10.89	8.664	6.709	5.621	4.728	4.398	3.599	3.607	3.237	3.316	2.807	2.679	2.521	2.362	2.368	2.471	2.168	1.938	2.181	1.995	2.118	1.950
485.0	176.1	232.3	283.0	1235	6989	2717	348.8	326.1	326.1	312.4	301.6	281.8	260.2	230.0	208.5	187.3	177.0	168.8	161.9	155.2	151.0	149.5	148.5	149.0	148.3	145.9	142.9	142.8	138.2	135.9	127.2	116.7	104.3	91.37	80.85	71.14	63.42	56.33	56.94	56.40	41.27	30.82	26.30	23.81	20.82	18.51	18.15	23.10	50.04	128.2	389.1	2491	9999.9	9999.9	1379	21.54	10.99	7.829	6.239	4.974	4.504	3.933	3.885	3.241	3.065	2.995	2.786	2.371	2.424	2.158	2.109	2.113	1.933	2.029	1.949	1.967	1.965
490.0	150.9	245.3	261.3	494.3	3893	5899	1027	311.7	297.6	290.0	279.8	260.5	238.4	212.7	189.8	170.0	162.3	152.9	148.7	141.4	137.7	135.8	134.4	135.1	132.3	130.7	128.9	129.0	126.2	123.6	117.2	107.0	95.46	85.99	76.61	68.61	60.02	53.14	49.18	51.18	46.92	34.83	26.58	23.45	20.64	18.57	17.06	16.34	21.88	38.59	96.63	568.5	2826	9464	9999.9	5586	103.8	11.05	7.840	5.772	5.092	4.244	3.833	3.589	3.235	2.891	2.716	2.611	2.514	2.243	2.150	2.165	1.945	1.845	1.788	1.874	1.884
495.0	131.8	200.3	276.4	287.7	1211	6450	3563	330.4	280.0	267.8	254.9	237.8	215.1	193.5	169.5	155.6	145.9	137.6	131.5	125.9	123.9	121.7	121.0	118.4	118.1	116.3	117.2	115.4	113.6	111.4	108.0	98.11	88.47	78.98	70.22	63.45	55.98	50.12	44.59	42.46	44.12	40.39	29.61	22.71	20.48	17.97	16.64	15.09	14.85	18.16	30.23	136.1	639.5	2170	6871	9999.9	7883	31.77	10.83	6.836	5.803	4.737	4.406	3.512	3.061	3.125	2.793	2.685	2.186	2.150	2.224	2.182	1.941	1.890	1.796	1.896	1.630
500.0	129.4	179.3	280.8	238.0	464.8	3944	7377	792.1	258.3	246.8	238.0	221.7	195.2	181.7	157.6	143.4	133.3	128.3	122.2	117.1	114.6	112.6	110.9	107.9	107.8	107.5	106.3	104.3	105.5	102.6	97.63	91.46	80.83	73.09	66.52	59.48	54.67	47.35	42.42	38.95	37.42	40.47	33.50	23.90	20.38	17.61	16.26	14.08	13.43	13.24	15.00	38.65	151.1	494.5	1718	8887	9999.9	1906	27.22	8.821	6.532	5.327	4.462	3.614	3.216	2.884	2.516	2.654	2.216	2.333	2.060	2.044	1.802	1.756	1.647	1.648	1.630
505.0	121.0	153.7	265.2	238.0	271.0	1605	8721	2485	244.4	234.3	221.3	208.2	184.7	167.2	146.3	132.0	123.4	117.4	110.8	107.7	101.7	101.7	100.3	98.43	97.27	97.19	97.29	96.59	95.38	93.29	90.10	84.68	74.64	67.88	62.13	55.64	50.28	44.58	39.21	36.59	32.52	35.85	35.54	25.99	20.15	17.86	16.00	13.95	12.74	11.88	11.60	16.06	41.78	119.3	395.3	2415	9999.9	9999.9	1558	20.90	7.867	5.991	4.916	3.990	3.358	2.854	2.800	2.544	2.219	2.108	1.971	1.964	1.730	1.757	1.629	1.577	1.612
510.0	103.7	127.4	208.8	253.1	209.3	530.8	5114	7226	799.3	213.4	197.6	181.3	166.4	148.5	131.5	119.4	109.5	103.6	99.15	93.42	90.73	89.05	87.77	87.42	86.19	85.60	85.05	84.75	84.70	83.75	78.86	74.76	67.77	60.94	56.18	50.96	44.97	40.41	36.35	33.02	29.48	29.33	31.44	29.29	22.22	17.19	15.43	13.57	11.81	11.17	10.05	10.73	16.24	33.97	96.21	549.2	2723	8705	9999.9	4651	104.5	8.696	5.685	4.413	3.687	3.328	2.769	2.414	2.301	1.990	1.846	1.700	1.709	1.589	1.541	1.526	1.404
515.0	85.51	108.9	154.5	244.7	211.3	256.5	1505	8598	2694	229.3	179.1	161.3	146.4	128.8	112.2	104.6	94.82	90.42	85.76	82.49	78.81	77.14	76.06	75.44	74.30	74.66	73.61	73.98	72.03	71.38	69.35	64.92	59.97	53.18	49.37	45.23	40.98	35.59	33.18	30.43	26.90	24.48	24.71	27.17	25.07	18.18	14.52	13.12	11.50	10.12	9.591	9.373	9.854	13.84	27.67	129.3	614.6	1975	5172	9999.9	6555	32.43	8.289	5.179	4.091	3.546	3.144	2.418	2.211	2.014	1.817	1.688	1.676	1.550	1.374	1.418	1.296
520.0	85.41	103.5	142.4	208.8	222.6	179.3	475.2	5429	7975	634.0	161.1	148.4	133.9	116.8	104.1	94.42	86.06	81.45	75.88	74.17	71.81	69.37	68.08	68.36	66.27	65.54	64.74	65.85	65.58	64.02	62.14	58.27	53.85	49.36	44.77	40.30	37.20	32.96	30.00	27.97	24.97	22.26	21.06	23.20	24.99	20.24	14.21	12.59	11.02	9.648	8.852	8.898	7.989	8.895	11.88	35.21	144.2	448.6	1246	6220	9999.9	1963	27.73	7.119	4.884	4.127	3.259	2.516	2.320	2.032	1.803	1.667	1.602	1.387	1.461	1.460	1.375
525.0	77.57	89.96	118.8	164.6	234.1	163.2	220.6	2127	9999.9	2064	155.8	136.5	122.0	108.2	94.69	86.68	77.23	71.67	70.67	67.84	64.71	62.28	60.97	61.04	59.41	59.79	58.32	58.88	59.50	57.35	56.40	52.22	48.40	45.21	40.63	37.44	33.91	31.47	27.94	25.21	23.59	21.09	20.17	19.11	22.45	21.41	15.59	12.17	10.71	9.067	8.381	7.735	8.011	7.501	8.014	13.63	38.34	106.5	287.1	1582	7790	9999.9	1683	21.47	6.076	4.538	3.432	2.843	2.377	2.128	1.942	1.636	1.485	1.439	1.385	1.200	1.217
530.0	69.88	83.92	97.90	122.5	200.1	181.0	155.4	614.7	6358	8029	691.4	126.6	111.1	95.76	83.77	74.82	69.28	63.91	61.36	57.98	56.32	54.36	53.89	52.66	51.64	52.26	50.65	51.89	51.02	51.13	48.71	45.99	42.72	38.58	35.96	33.04	29.84	27.75	25.12	22.75	21.05	19.01	17.92	16.65	17.08	19.15	17.25	12.83	10.02	8.303	7.838	7.147	7.221	7.000	6.721	7.918	14.01	28.96	69.95	359.8	1958	6039	9673	4087	115.5	6.956	4.202	3.073	2.511	2.178	1.901	1.674	1.560	1.425	1.322	1.270	1.319
535.0	62.01	71.89	81.13	103.9	141.3	198.4	137.1	230.2	1812	9999.9	4041	135.3	99.13	86.43	74.73	65.59	59.00	55.83	52.22	51.11	47.45	46.76	46.77	44.95	45.48	44.41	43.47	43.14	43.78	42.69	42.74	40.03	36.80	34.03	31.17	28.36	25.93	24.43	22.13	20.04	18.89	17.29	15.25	14.39	14.29	14.37	16.50	14.44	10.10	7.882	6.890	6.604	6.216	6.224	6.471	6.515	7.341	11.06	20.34	84.72	441.6	1359	3495	9892	5815	33.51	6.795	3.632	2.918	2.465	1.968	1.686	1.588	1.418	1.267	1.275	1.276
540.0	55.55	72.00	75.25	84.19	109.7	191.4	137.2	130.2	506.9	6359	9121	240.3	90.36	78.23	67.42	57.67	53.70	49.57	46.17	44.85	42.67	41.37	40.68	39.74	39.29	38.94	38.35	37.25	38.71	37.74	36.26	35.15	32.00	29.68	27.75	25.24	23.70	21.82	20.41	17.95	16.73	15.41	13.97	13.41	12.71	11.78	13.53	14.42	11.04	7.755	6.622	6.383	5.731	5.742	5.826	6.141	5.804	6.580	8.651	23.11	103.1	308.4	808.2	4254	9999.9	2024	29.24	5.186	3.359	2.838	2.300	1.707	1.656	1.536	1.270	1.372	1.151
545.0	56.73	62.10	70.23	77.78	85.62	149.8	156.1	105.3	193.0	2353	9999.9	1532	88.22	72.21	59.41	51.69	47.59	43.92	41.43	39.94	38.29	37.21	35.29	34.65	34.48	34.03	34.03	33.48	34.80	34.20	32.88	30.68	28.70	26.64	24.88	22.75	21.00	19.63	17.80	16.32	14.59	14.04	12.53	11.92	11.32	10.17	10.53	12.41	11.74	8.370	6.520	5.796	5.599	5.125	5.263	5.435	5.531	5.048	5.557	8.880	26.78	73.47	186.3	1013	4980	8763	1780	23.68	4.602	3.123	2.387	1.998	1.645	1.448	1.249	1.259	1.108
550.0	53.83	58.21	67.84	68.11	72.93	98.14	158.2	103.9	105.8	632.4	6550	7811	455.7	64.32	52.89	45.07	41.42	37.89	35.57	33.79	31.92	31.19	30.12	29.41	29.38	29.39	28.29	28.10	28.25	28.68	27.20	25.42	23.89	22.86	20.85	19.12	18.17	16.77	15.43	13.97	12.77	11.92	11.11	10.37	9.831	8.965	8.782	9.041	10.52	9.117	6.623	5.330	4.738	4.539	4.735	4.629	5.052	4.478	4.234	4.948	9.041	19.72	45.46	230.5	1181	3877	6373	3667	131.8	6.797	2.891	2.172	1.748	1.420	1.368	1.274	1.204
555.0	51.24	55.44	57.47	59.38	61.50	67.77	128.4	128.4	80.60	199.8	1811	9999.9	3180	73.39	45.17	39.23	33.13	32.66	29.40	28.85	25.99	26.01	24.68	23.92	24.22	23.42	22.88	23.20	22.80	23.14	22.16	21.11	19.58	18.85	17.52	15.53	14.99	13.77	12.93	11.59	10.48	10.06	9.355	8.664	8.243	7.920	7.368	6.847	7.666	8.121	6.985	5.202	4.388	3.820	3.867	3.906	4.019	4.225	3.935	3.672	4.827	7.163	12.88	54.50	266.3	869.2	1953	5779	4551	195.5	5.539	2.690	1.957	1.605	1.423	1.285	1.118
560.0	54.11	51.91	58.87	54.31	53.68	52.63	86.87	145.6	73.54	97.60	473.6	6531	8122	161.0	41.53	35.03	30.32	28.13	25.84	24.71	23.39	21.85	22.29	20.76	19.07	20.25	19.60	19.70	19.84	19.85	19.27	17.82	16.87	16.23	15.17	13.60	12.31	11.65	11.05	10.25	9.496	8.733	8.066	7.368	7.290	6.819	6.495	5.908	5.966	6.638	6.932	5.367	4.075	3.814	3.532	3.516	3.648	3.550	3.755	3.322	3.239	3.952	5.520	14.80	62.38	196.9	445.4	2106	6118	2112	32.06	3.865	2.242	1.934	1.573	1.364	1.127
565.0	53.34	49.03	54.43	52.67	46.51	43.94	62.17	138.5	81.90	68.59	157.6	2419	9999.9	1064	40.37	31.70	27.96	24.94	23.45	21.29	19.54	18.94	19.25	17.95	17.30	17.84	17.05	17.04	16.76	17.59	16.60	15.16	14.57	13.82	12.36	11.95	11.09	10.19	9.448	8.936	8.311	7.766	7.045	6.606	6.693	5.813	5.589	5.187	4.937	5.471	5.997	5.663	4.112	3.585	3.197	3.180	3.180	2.857	3.304	3.365	3.337	2.929	3.247	5.532	16.49	46.61	103.0	488.7	2578	5427	1749	24.86	2.948	2.134	1.754	1.337	1.221
570.0	51.57	50.41	51.99	45.07	40.70	40.11	44.46	94.21	114.4	60.10	77.22	623.3	6745	6741	281.4	29.64	24.61	21.91	19.87	17.83	16.95	16.51	16.07	15.07	14.53	14.36	14.31	14.13	13.64	14.45	13.45	12.90	12.06	11.42	10.23	9.712	9.416	8.333	7.824	7.443	6.948	6.634	5.950	5.649	5.434	5.091	4.800	4.348	4.213	4.193	4.423	5.001	4.147	3.491	2.933	2.921	2.740	2.623	2.694	2.802	3.010	2.703	2.630	3.110	5.584	12.65	25.34	111.7	595.6	2062	3661	2497	137.1	6.152	2.051	1.483	1.388
575.0	46.25	49.14	54.25	36.56	37.62	32.41	39.31	55.55	118.4	72.41	57.98	178.3	1851	9636	2291	33.54	21.20	18.85	16.24	14.77	13.97	13.76	13.42	12.89	12.40	11.96	11.43	12.13	11.29	10.99	11.19	10.33	9.869	9.365	8.411	7.770	7.676	7.115	6.616	5.923	5.653	5.392	4.882	4.852	4.621	4.208	4.038	3.737	3.352	3.444	3.167	3.674	4.078	3.509	2.766	2.479	2.412	2.412	2.234	2.162	2.290	2.667	2.409	2.339	2.857	4.562	7.524	26.85	134.9	462.2	981.8	2955	2193	205.1	4.658	1.866	1.363
580.0	43.49	46.54	52.73	36.52	33.93	32.25	34.94	39.18	96.25	89.89	51.93	79.50	467.7	6264	6181	97.18	21.08	17.97	15.19	13.65	12.47	11.50	11.62	11.05	11.29	10.36	9.989	10.24	9.917	9.645	9.341	9.394	8.428	7.783	7.574	6.974	6.496	6.214	5.786	5.304	4.979	4.776	4.462	4.203	3.905	4.074	3.830	3.391	3.024	2.979	2.710	2.827	3.270	3.696	3.048	2.305	2.304	2.154	2.106	2.060	2.046	2.399	2.545	2.094	2.094	2.633	3.324	7.643	32.02	105.1	222.9	957.1	3221	1994	33.77	2.899	1.521
585.0	40.07	49.18	51.08	37.63	27.38	28.24	29.43	34.45	68.27	109.5	54.50	52.86	140.5	2315	8977	678.8	22.42	16.91	14.42	12.51	11.37	10.73	9.934	10.02	9.587	9.150	8.475	8.965	9.042	8.649	8.449	7.793	7.280	6.380	6.455	6.149	5.728	5.466	4.973	4.956	4.396	4.196	4.064	3.549	3.722	3.759	3.442	3.057	2.553	2.776	2.351	2.425	2.841	3.308	3.156	2.392	2.256	2.016	1.894	1.894	1.871	2.047	2.357	2.053	1.998	1.901	2.349	3.129	8.757	25.39	51.88	219.6	1224	3226	1533	25.90	2.173
590.0	43.85	45.61	46.75	38.02	28.23	28.46	28.55	34.03	46.70	102.3	73.60	47.35	66.39	588.2	5770	4501	70.68	16.40	12.88	11.03	9.956	9.129	8.946	8.419	8.071	8.122	7.329	7.514	7.242	7.181	7.091	6.741	6.286	5.727	5.548	5.150	4.872	4.932	4.231	4.201	3.852	3.514	3.558	3.338	3.191	3.168	2.975	2.649	2.453	2.280	2.094	2.091	1.997	2.631	2.925	2.540	2.085	1.888	1.762	1.549	1.719	1.629	1.943	2.069	1.997	1.708	1.665	1.983	3.350	6.965	13.05	50.72	280.3	1115	2250	1598	135.4
595.0	41.84	45.44	42.06	35.67	30.31	26.39	28.07	33.00	39.85	71.65	102.4	52.51	51.42	161.8	1609	7082	750.7	19.16	12.27	10.17	9.262	8.120	7.924	7.404	7.059	7.022	5.818	6.793	6.145	6.045	5.741	5.667	5.369	4.848	4.893	4.724	4.334	3.945	3.626	3.593	3.272	2.940	2.878	2.970	2.757	2.794	2.583	2.396	2.119	1.906	1.944	1.850	1.692	1.905	2.295	2.557	2.244	1.890	1.616	1.600	1.441	1.506	1.512	1.626	1.879	1.589	1.467	1.429	1.927	2.712	4.034	12.49	63.66	249.9	579.9	1738	1939
600.0	41.49	44.13	42.49	36.24	26.32	29.62	27.43	34.35	42.19	57.72	112.7	63.63	51.33	70.15	405.8	5022	3822	59.11	12.17	9.585	8.420	7.485	7.120	6.942	6.333	6.034	5.383	5.574	5.659	5.365	5.152	5.022	4.896	4.498	4.429	4.031	3.710	3.741	3.449	3.309	2.927	2.691	2.633	2.612	2.432	2.466	2.139	2.247	1.882	1.724	1.754	1.585	1.587	1.558	1.859	2.184	2.295	1.983	1.498	1.543	1.368	1.295	1.385	1.422	1.790	1.655	1.590	1.455	1.617	1.645	1.994	3.917	15.23	56.95	131.4	537.1	1987
605.0	44.12	49.35	46.56	41.41	31.20	30.70	35.81	40.04	49.57	64.14	117.4	97.53	66.25	60.35	129.3	1999	6280	408.1	13.74	10.05	8.126	7.250	6.453	6.697	5.801	5.498	5.013	5.112	4.982	5.265	4.873	4.780	4.181	4.006	3.854	3.594	3.398	3.152	3.113	2.897	2.670	2.495	2.446	2.347	2.128	2.255	1.970	1.891	1.775	1.671	1.671	1.519	1.307	1.474	1.724	1.820	2.163	2.045	1.505	1.443	1.309	1.373	1.466	1.378	1.559	1.582	1.597	1.420	1.395	1.339	1.474	1.882	4.468	13.87	30.50	123.2	704.7
610.0	50.44	56.13	55.41	45.00	36.19	37.01	46.46	59.08	76.41	93.30	128.2	156.3	105.2	81.57	88.69	537.1	4571	2998	46.79	10.12	7.881	6.867	5.896	5.571	4.890	5.087	4.644	4.572	4.410	4.579	4.378	3.920	3.733	3.548	3.367	2.997	3.013	2.955	2.660	2.494	2.287	2.278	2.053	2.085	2.025	2.009	1.911	1.807	1.613	1.595	1.353	1.448	1.262	1.421	1.376	1.350	1.833	1.944	1.611	1.432	1.278	1.425	1.425	1.377	1.483	1.466	1.683	1.718	1.469	1.379	1.465	1.447	2.005	4.230	7.922	28.79	161.0
615.0	45.06	57.30	55.31	49.65	38.03	40.02	51.13	68.45	81.31	102.7	126.1	171.3	137.8	96.34	83.44	168.5	1379	5295	542.6	11.93	7.296	6.708	5.704	5.044	4.602	4.458	4.295	4.090	3.694	3.888	4.163	3.518	3.383	3.247	2.829	2.546	2.472	2.481	2.454	2.317	2.026	1.929	1.783	1.932	1.835	1.703	1.722	1.775	1.474	1.452	1.264	1.186	1.217	1.324	1.298	1.358	1.562	1.704	1.664	1.541	1.353	1.371	1.252	1.338	1.476	1.375	1.628	1.698	1.738	1.362	1.314	1.271	1.359	1.955	2.707	7.326	36.75
620.0	42.47	57.17	57.66	46.32	37.95	40.87	51.93	66.15	79.50	99.39	117.7	154.1	150.0	97.01	78.84	84.25	376.4	4130	2611	32.67	7.712	6.675	5.630	4.648	4.312	4.213	4.051	3.506	3.488	3.504	3.600	3.305	3.211	2.689	2.529	2.369	2.371	2.294	2.312	2.007	1.824	1.641	1.620	1.823	1.643	1.461	1.561	1.603	1.460	1.353	1.235	1.162	1.146	1.187	1.150	1.213	1.220	1.482	1.589	1.474	1.253	1.232	1.249	1.239	1.393	1.347	1.384	1.527	1.523	1.505	1.169	1.214	1.240	1.262	1.452	2.465	9.087
625.0	53.98	57.38	60.72	46.79	39.22	40.17	52.31	67.23	79.62	98.79	115.1	138.6	150.9	99.79	77.92	63.01	129.6	1787	4754	232.6	8.673	6.478	5.816	4.523	4.384	4.088	3.664	3.308	3.165	3.558	3.165	2.927	2.756	2.608	2.526	2.235	2.137	2.113	2.009	2.040	1.740	1.501	1.625	1.663	1.591	1.554	1.597	1.428	1.426	1.190	1.140	1.015	1.057	1.080	1.093	1.052	1.144	1.253	1.394	1.510	1.197	1.375	1.297	1.261	1.200	1.229	1.240	1.342	1.332	1.526	1.196	1.115	1.099	1.070	1.136	1.267	2.874
630.0	52.13	57.90	55.94	51.65	40.21	39.98	51.30	65.11	76.98	93.01	111.4	128.6	142.2	110.2	77.62	58.01	70.91	472.1	3845	1834	31.33	7.119	5.310	4.713	4.046	3.801	3.403	3.048	3.066	3.150	3.007	2.707	2.503	2.513	2.279	2.046	1.901	1.872	1.826	1.769	1.658	1.498	1.550	1.475	1.351	1.434	1.388	1.299	1.239	1.183	1.114	1.076	1.013	1.055	1.061	1.052	1.069	1.182	1.221	1.370	1.174	1.349	1.211	1.122	1.104	1.285	1.155	1.153	1.180	1.245	1.205	1.064	1.059	0.959	0.952	0.936	1.409
635.0	48.31	59.67	57.76	53.18	40.42	42.86	50.97	62.41	74.54	91.38	107.6	122.2	126.3	120.3	81.79	56.87	58.01	129.9	1216	4208	387.4	8.079	5.666	4.706	3.624	3.455	3.255	2.961	2.961	2.890	2.958	2.544	2.366	2.175	2.109	1.745	1.785	1.773	1.560	1.652	1.452	1.414	1.403	1.374	1.435	1.329	1.310	1.228	1.198	1.206	0.996	1.085	0.908	1.021	0.991	0.965	1.025	1.055	1.048	1.118	1.137	1.250	1.032	1.182	1.094	1.132	1.105	1.108	1.065	1.039	1.080	1.237	1.145	0.991	0.925	0.881	0.939
640.0	47.84	61.55	59.47	53.53	43.96	44.49	48.17	60.07	71.03	86.16	106.1	118.5	117.6	124.6	86.43	56.07	53.34	52.64	311.0	3612	1727	19.14	5.681	4.714	3.681	3.425	3.117	2.774	2.696	2.647	2.473	2.411	2.276	2.024	2.166	1.703	1.732	1.777	1.518	1.420	1.344	1.281	1.285	1.254	1.280	1.221	1.224	1.268	1.026	1.067	0.922	1.018	0.921	0.883	1.058	0.909	0.932	0.973	0.960	1.064	1.094	1.180	1.133	1.123	1.003	1.133	1.061	1.058	1.067	0.936	0.992	1.059	1.189	0.918	0.908	0.800	0.820
645.0	41.21	57.00	53.18	50.34	43.03	41.32	46.21	53.59	70.15	81.43	102.8	114.9	111.8	112.0	88.74	54.20	49.31	34.78	82.04	1715	3428	66.35	6.205	4.909	4.024	3.509	2.950	2.545	2.556	2.420	2.482	2.431	2.377	1.989	2.091	1.780	1.721	1.520	1.503	1.313	1.390	1.161	1.267	1.335	1.124	1.232	1.272	1.173	1.036	1.040	0.935	1.107	0.907	0.822	1.052	1.016	0.937	1.050	1.040	0.884	1.021	1.137	1.069	1.134	1.114	1.116	1.055	1.109	1.099	1.029	1.002	0.957	1.125	0.950	0.860	0.868	0.874
650.0	44.41	58.66	57.51	47.93	39.65	40.27	44.88	55.19	65.52	77.80	95.66	106.5	103.7	100.8	88.72	55.22	45.95	29.17	28.55	511.8	3813	499.5	8.674	4.830	4.028	3.741	3.053	2.777	2.597	2.505	2.325	2.329	2.196	1.956	1.893	1.635	1.728	1.524	1.466	1.215	1.365	1.168	1.314	1.285	1.231	1.236	1.223	1.288	1.037	1.126	0.932	1.037	0.827	0.888	0.891	0.927	0.987	0.866	0.913	0.899	0.874	0.968	0.992	1.082	1.054	0.991	0.890	1.131	0.978	0.959	0.846	0.765	0.994	1.008	0.901	0.832	0.776
