Sample:	'1
File name:	W102404陈氏生物原水20倍.FD3
Run date:	'14:04:55, 10/25/2024
Operator:	horiz
Comment:	'

Instrument
Model:	F-2700 FL Spectrophotometer
Serial number:	23B8-004
ROM Version:	4J14000 07

Instrument parameters
Measurement type:	3-D scan
Data mode:	Fluorescence
EX  Start WL:	220.0 nm
EX  End WL:	600.0 nm
EX Sampling interval:	5.0 nm
EM  Start WL:	230.0 nm
EM  End WL:	650.0 nm
EM Sampling interval:	5.0 nm
Scan speed:	12000 nm/min
EX Slit:	5.0 nm
EM Slit:	5.0 nm
PMT Voltage:	700 V
Response:	Auto 
Corrected spectra:	Off
Contour interval:	50.000

Peak integration
Integration method:	Rectangular
Sensitivity:	1
Threshold:	1.000

Peaks
No.	ApexEX/EM(nm)	Height(Data)
1	225.0/490.0	198.5
2	230.0/500.0	187.5
3	235.0/255.0	398.9
4	235.0/515.0	137.9
5	240.0/265.0	427.7
6	240.0/525.0	145.7
7	245.0/270.0	426.1
8	245.0/535.0	128.0
9	250.0/275.0	560.6
10	250.0/550.0	120.7
11	255.0/560.0	117.6
12	260.0/575.0	129.6
13	265.0/590.0	170.6
14	270.0/600.0	214.6
15	275.0/340.0	4089
16	275.0/610.0	206.5
17	280.0/625.0	163.2
18	315.0/355.0	235.6
19	320.0/360.0	221.0
20	325.0/370.0	174.1
21	330.0/375.0	165.1
22	335.0/380.0	176.8
23	340.0/385.0	142.3
24	350.0/400.0	127.9
25	355.0/405.0	113.2
26	360.0/410.0	95.97
27	365.0/420.0	97.57
28	370.0/425.0	87.82
29	375.0/430.0	73.06
30	380.0/440.0	67.77
31	385.0/445.0	60.61
32	390.0/305.0	5.188
33	390.0/450.0	46.30
34	395.0/460.0	42.43
35	400.0/465.0	37.49
36	405.0/470.0	29.49
37	410.0/480.0	25.74
38	415.0/485.0	22.87
39	420.0/490.0	18.53
40	425.0/500.0	17.23
41	430.0/505.0	15.25
42	440.0/520.0	11.51
43	445.0/340.0	9.041
44	445.0/525.0	9.607
45	455.0/540.0	7.017
46	465.0/555.0	3.894
47	470.0/560.0	3.670
48	480.0/575.0	2.136
49	485.0/265.0	2.159
50	485.0/580.0	1.758
51	495.0/270.0	2.056
52	505.0/275.0	3.153
53	510.0/280.0	3.497
54	550.0/305.0	12.68
55	550.0/335.0	14.33
56	555.0/310.0	12.24
57	560.0/340.0	14.43

Wavelength data
No.	EX/EM(nm)	Height(Data)	

Data points
	220.0	225.0	230.0	235.0	240.0	245.0	250.0	255.0	260.0	265.0	270.0	275.0	280.0	285.0	290.0	295.0	300.0	305.0	310.0	315.0	320.0	325.0	330.0	335.0	340.0	345.0	350.0	355.0	360.0	365.0	370.0	375.0	380.0	385.0	390.0	395.0	400.0	405.0	410.0	415.0	420.0	425.0	430.0	435.0	440.0	445.0	450.0	455.0	460.0	465.0	470.0	475.0	480.0	485.0	490.0	495.0	500.0	505.0	510.0	515.0	520.0	525.0	530.0	535.0	540.0	545.0	550.0	555.0	560.0	565.0	570.0	575.0	580.0	585.0	590.0	595.0	600.0
230.0	88.68	1008	2641	844.3	37.18	8.678	7.243	6.445	5.425	5.166	4.764	4.424	3.881	3.094	2.386	1.900	1.572	1.330	1.289	1.123	0.979	0.923	0.959	0.784	0.764	0.698	0.677	0.700	0.687	0.641	0.637	0.550	0.551	0.499	0.526	0.533	0.497	0.457	0.479	0.453	0.617	0.942	0.944	0.599	0.436	0.421	1.346	5.088	8.023	5.313	1.825	0.527	0.363	0.344	0.302	0.321	0.367	0.358	0.338	0.334	0.309	0.354	0.338	0.331	0.341	0.333	0.331	0.347	0.369	0.352	0.347	0.350	0.337	0.351	0.353	0.357	0.348
235.0	207.6	289.1	1452	2606	624.5	44.24	8.815	6.804	4.515	4.856	4.346	5.038	3.944	3.354	2.488	1.936	1.484	1.233	1.193	1.140	1.021	1.010	0.901	0.830	0.788	0.688	0.712	0.672	0.704	0.655	0.711	0.645	0.510	0.553	0.565	0.465	0.495	0.484	0.491	0.449	0.461	0.613	0.786	0.956	0.858	0.641	0.639	1.533	3.235	5.140	7.027	6.898	2.938	0.720	0.345	0.341	0.377	0.372	0.338	0.367	0.338	0.366	0.323	0.342	0.332	0.345	0.344	0.314	0.347	0.359	0.338	0.353	0.320	0.337	0.336	0.384	0.345
240.0	244.5	203.2	441.9	2022	2453	467.1	22.27	7.765	6.040	5.327	5.523	4.847	4.277	3.592	2.622	1.934	1.814	1.401	1.159	1.250	0.950	0.888	1.028	0.780	0.715	0.623	0.707	0.727	0.666	0.640	0.663	0.660	0.596	0.581	0.439	0.455	0.497	0.501	0.463	0.469	0.410	0.469	0.518	0.721	1.024	1.192	0.779	0.678	1.017	1.740	3.816	9.307	9.751	6.097	2.140	0.489	0.366	0.403	0.380	0.343	0.307	0.325	0.320	0.346	0.365	0.338	0.359	0.344	0.357	0.410	0.312	0.363	0.430	0.360	0.337	0.418	0.317
245.0	159.0	287.6	187.8	692.2	2499	2357	317.3	11.07	7.441	6.180	6.019	4.788	4.614	3.323	2.804	1.840	1.975	1.418	1.124	1.143	0.883	0.991	0.876	0.779	0.789	0.679	0.691	0.778	0.802	0.684	0.705	0.608	0.514	0.549	0.484	0.473	0.522	0.507	0.514	0.466	0.460	0.434	0.423	0.517	0.611	1.046	1.218	0.966	0.638	0.668	1.150	3.377	7.370	11.91	9.923	5.065	1.369	0.458	0.354	0.433	0.376	0.396	0.317	0.367	0.336	0.389	0.324	0.347	0.381	0.358	0.352	0.354	0.361	0.378	0.346	0.385	0.335
250.0	72.65	196.4	304.5	271.0	806.6	2293	2680	888.0	46.48	7.809	6.450	5.520	4.543	3.818	2.631	1.950	1.790	1.664	1.338	1.194	1.065	0.943	0.965	0.833	0.782	0.826	0.826	0.763	0.727	0.689	0.701	0.662	0.624	0.526	0.510	0.464	0.494	0.490	0.497	0.437	0.462	0.438	0.491	0.478	0.447	0.597	0.828	1.075	1.178	0.945	0.736	1.131	2.049	4.223	6.894	9.951	11.99	9.685	4.973	1.406	0.445	0.365	0.335	0.337	0.351	0.359	0.353	0.368	0.383	0.391	0.345	0.354	0.373	0.371	0.332	0.375	0.358
255.0	49.14	69.98	199.4	398.9	299.0	598.8	2121	3530	363.3	39.71	7.788	6.731	5.033	4.468	2.746	2.288	1.913	1.559	1.365	1.156	1.207	0.956	0.996	0.902	0.821	0.815	0.852	0.699	0.732	0.595	0.664	0.572	0.578	0.525	0.573	0.426	0.476	0.419	0.458	0.464	0.453	0.461	0.484	0.465	0.430	0.425	0.436	0.566	0.760	1.091	1.419	1.469	0.971	1.230	1.911	2.671	5.194	11.86	18.42	15.44	6.638	1.371	0.384	0.359	0.404	0.334	0.396	0.387	0.390	0.367	0.331	0.339	0.343	0.389	0.313	0.375	0.426
260.0	35.45	40.96	76.97	323.6	371.2	197.7	657.5	3220	2883	295.3	18.11	8.711	6.157	4.429	2.851	2.376	2.080	1.720	1.495	1.109	1.182	0.992	0.964	0.966	0.816	0.713	0.769	0.703	0.754	0.634	0.760	0.621	0.644	0.499	0.571	0.522	0.506	0.458	0.492	0.484	0.471	0.446	0.493	0.419	0.410	0.433	0.372	0.397	0.433	0.572	1.033	2.044	1.736	1.105	0.789	0.913	1.554	3.597	9.130	17.10	21.12	14.55	4.534	0.802	0.460	0.352	0.365	0.391	0.351	0.377	0.374	0.329	0.376	0.344	0.352	0.408	0.447
265.0	46.49	33.87	39.33	143.1	427.7	264.1	185.7	1130	4229	2475	211.6	12.03	6.978	5.017	3.215	2.439	2.266	1.721	1.447	1.308	1.094	1.098	0.939	0.945	0.863	0.858	0.863	0.666	0.761	0.735	0.715	0.646	0.640	0.722	0.620	0.525	0.567	0.472	0.524	0.489	0.555	0.505	0.496	0.461	0.453	0.400	0.400	0.391	0.348	0.353	0.504	1.077	1.887	2.159	1.356	0.669	0.688	1.143	2.440	5.560	13.64	22.88	22.82	11.97	2.629	0.520	0.393	0.374	0.408	0.356	0.390	0.393	0.343	0.395	0.387	0.343	0.375
270.0	96.18	39.19	28.39	52.59	198.8	426.1	310.8	326.8	1431	3689	3791	807.6	33.62	7.117	4.548	3.213	2.754	1.904	1.704	1.390	1.189	1.186	1.193	1.031	0.886	0.902	0.918	0.877	0.863	0.744	0.705	0.686	0.809	0.861	0.886	0.620	0.781	0.768	0.774	0.790	0.782	0.797	0.706	0.659	0.556	0.435	0.416	0.425	0.371	0.329	0.385	0.557	0.890	1.335	1.789	2.056	1.697	1.040	0.973	1.718	3.650	7.259	12.89	18.98	21.48	17.19	8.761	2.367	0.502	0.381	0.388	0.406	0.414	0.373	0.406	0.380	0.360
275.0	169.1	53.90	31.45	34.50	70.09	205.1	560.6	373.4	407.4	1009	3429	5918	999.2	24.37	6.073	4.355	3.079	2.322	1.922	1.380	1.189	1.239	1.243	1.039	0.896	0.874	0.881	0.766	0.888	0.719	0.711	0.721	0.894	1.318	1.116	1.027	1.109	1.028	1.122	1.055	1.175	1.071	1.103	0.930	0.764	0.525	0.418	0.421	0.381	0.305	0.402	0.416	0.522	0.601	0.783	1.250	2.499	3.153	2.231	1.163	1.373	2.229	3.427	4.903	7.584	15.55	26.93	25.25	11.92	2.193	0.526	0.420	0.387	0.416	0.399	0.412	0.366
280.0	301.4	125.3	67.02	42.80	48.46	95.70	385.5	681.4	315.9	366.0	1148	5289	5117	166.3	12.59	5.719	3.837	2.841	2.085	1.959	1.390	1.290	1.248	1.051	1.017	0.960	0.867	0.922	0.861	0.686	0.772	0.767	1.093	1.440	1.398	1.421	1.503	1.359	1.308	1.332	1.444	1.395	1.350	1.204	0.939	0.761	0.637	0.573	0.512	0.398	0.447	0.513	0.444	0.488	0.540	0.634	1.259	2.473	3.497	2.877	1.560	1.256	1.522	1.794	2.554	4.645	10.95	21.98	30.07	22.22	7.301	1.240	0.538	0.437	0.431	0.410	0.430
285.0	573.1	362.7	188.9	80.60	55.06	77.04	199.8	683.1	685.1	363.9	523.3	2084	6223	3641	112.8	8.708	4.474	3.300	2.484	2.246	1.735	1.443	1.403	1.239	1.169	0.981	0.886	0.987	0.883	0.777	0.799	0.845	1.144	1.837	1.989	1.773	1.728	1.634	1.528	1.710	1.804	1.640	1.756	1.587	1.547	1.382	1.128	0.988	0.797	0.507	0.464	0.506	0.510	0.546	0.581	0.573	0.871	1.301	2.370	3.777	3.874	2.417	1.625	1.744	1.983	2.471	3.955	7.301	15.31	26.98	29.76	16.39	4.050	0.742	0.479	0.524	0.463
290.0	1193	969.8	534.5	197.3	96.45	108.5	199.9	479.0	1011	1181	1055	1366	2616	4524	3214	437.1	17.22	4.850	3.087	2.495	1.800	1.822	1.583	1.334	1.193	1.102	0.933	0.950	0.913	0.834	0.858	0.976	1.756	2.583	3.306	2.651	2.422	2.208	2.025	2.206	2.284	2.402	2.629	2.597	2.716	2.758	2.621	2.414	1.611	1.026	0.792	0.661	0.593	0.680	0.689	0.778	0.978	1.280	1.668	2.475	3.801	4.489	5.290	4.579	4.035	4.146	4.590	5.195	6.604	10.06	14.77	19.28	21.95	18.92	11.80	3.510	0.752
295.0	1878	1614	927.4	321.6	145.7	151.8	268.3	507.8	951.1	1794	2083	1796	1676	1591	3399	4564	113.5	12.22	4.564	3.317	2.076	2.055	1.896	1.623	1.556	1.210	1.070	0.983	1.008	0.877	0.857	1.220	2.121	3.459	4.597	3.811	2.992	2.738	2.424	2.756	2.897	3.221	3.422	3.663	3.848	4.475	3.818	3.530	2.837	1.622	1.127	0.928	0.673	0.758	0.722	0.914	1.208	1.515	1.985	2.407	3.273	4.096	5.743	8.405	8.934	7.588	6.970	6.887	6.494	6.924	6.702	6.547	7.335	12.52	24.00	26.85	15.85
300.0	2292	2033	1168	414.8	185.2	199.1	334.2	592.3	1064	1795	2799	2239	1735	994.8	1207	4353	3591	92.04	7.568	4.061	3.007	2.242	2.182	1.763	1.394	1.402	1.346	1.144	1.013	0.977	1.062	1.281	2.457	3.920	4.878	4.206	3.450	2.987	2.878	2.826	3.325	3.600	3.874	4.303	4.876	5.622	4.950	4.330	3.242	1.959	1.204	1.069	0.847	0.837	0.875	1.138	1.496	1.673	2.321	3.051	3.656	4.377	5.665	7.714	10.37	11.23	11.02	8.561	7.531	7.194	5.731	4.459	3.547	4.356	8.419	17.59	29.12
305.0	2576	2356	1317	485.2	230.2	246.9	397.4	709.0	1207	1873	2825	3080	2045	1029	598.0	1610	4649	2687	64.67	4.937	3.575	2.616	2.487	1.993	1.726	1.390	1.270	1.167	1.012	1.061	1.089	1.323	2.531	4.399	5.188	4.504	3.634	3.392	3.012	3.052	3.337	3.797	3.991	4.659	5.769	6.013	5.552	5.242	3.492	2.170	1.435	1.222	0.889	0.939	1.104	1.191	1.739	1.871	2.631	3.447	4.297	5.000	6.213	7.874	9.614	11.08	12.68	11.86	9.438	7.759	6.256	4.444	3.193	2.804	3.259	5.610	11.50
310.0	2802	2577	1417	554.0	292.6	312.3	497.6	846.5	1394	2058	2791	3218	2724	1386	675.9	645.4	1588	3315	2292	289.7	11.26	3.583	2.963	2.164	1.860	1.519	1.437	1.308	1.090	1.198	1.090	1.218	2.312	4.092	4.919	4.306	3.658	3.289	3.034	3.276	3.502	4.015	4.569	5.180	6.036	6.503	5.948	5.656	3.854	2.318	1.547	1.494	1.089	1.199	1.286	1.474	1.999	2.355	3.038	3.846	4.859	5.995	7.309	8.649	9.730	10.32	11.68	12.24	11.81	10.95	8.267	5.623	4.154	3.290	2.975	3.046	3.925
315.0	2993	2784	1505	623.3	368.5	411.1	632.3	1044	1634	2342	3004	3198	2977	2147	1005	571.2	521.5	857.8	2368	3394	78.54	8.688	3.969	2.567	2.108	1.795	1.518	1.444	1.204	1.276	1.189	1.356	2.144	3.631	4.273	3.840	3.763	3.086	2.954	3.406	3.438	4.334	4.949	5.620	6.453	7.007	6.366	5.681	3.875	2.535	1.731	1.736	1.384	1.429	1.549	1.832	2.276	2.630	3.512	4.526	5.853	6.404	8.097	9.564	10.49	10.89	11.99	11.12	11.31	11.31	10.93	8.815	6.600	4.706	3.653	2.903	2.723
320.0	3284	2925	1566	691.8	443.0	502.4	745.1	1207	1837	2568	3204	3337	2994	2496	1355	658.2	315.7	250.1	700.7	3047	2641	67.04	6.214	3.187	2.528	1.854	1.709	1.530	1.243	1.324	1.230	1.262	1.810	3.086	3.942	3.610	3.352	2.992	2.976	3.306	3.458	4.617	5.341	6.223	7.027	7.598	6.639	5.857	4.190	2.525	1.976	1.879	1.638	1.594	1.690	2.219	2.531	3.177	4.014	5.188	6.150	7.679	8.441	9.868	10.94	12.06	12.44	12.40	12.04	11.49	10.49	9.742	9.183	6.404	4.640	3.466	2.775
325.0	3531	3060	1600	737.9	506.2	570.6	849.3	1354	2043	2788	3398	3569	3135	2524	1831	865.1	307.7	119.8	184.6	994.4	3211	2036	54.11	4.199	2.957	2.354	1.796	1.530	1.341	1.444	1.170	1.465	1.898	2.896	3.595	3.316	3.244	3.110	3.209	3.585	3.891	4.725	5.711	6.473	7.368	7.936	7.174	6.040	4.469	2.601	1.930	2.033	1.821	1.875	1.927	2.625	3.237	3.621	4.684	5.576	6.563	8.048	9.412	10.93	11.96	12.91	13.04	12.79	12.86	12.12	10.19	9.842	9.818	8.557	6.862	4.676	3.142
330.0	3777	3247	1777	804.2	578.8	669.6	990.9	1526	2274	3051	3673	3840	3401	2700	1884	1176	451.5	107.3	70.89	242.7	1003	2350	3039	236.5	11.01	2.868	2.202	1.943	1.659	1.484	1.288	1.411	1.725	2.646	3.162	3.041	3.194	3.018	3.396	3.814	4.262	5.251	6.194	7.113	7.925	8.511	7.516	6.534	4.697	2.895	2.075	2.253	2.031	2.004	2.309	2.836	3.405	4.235	5.262	6.115	7.819	8.708	10.31	11.63	13.00	13.40	13.80	13.53	13.51	12.98	11.34	10.72	9.875	8.000	7.158	6.100	4.675
335.0	4155	3470	1888	879.6	652.4	735.5	1091	1668	2444	3221	3870	4046	3638	2910	1910	1133	687.4	196.6	53.36	74.80	238.6	579.0	2430	2718	330.4	7.752	2.697	2.250	2.098	1.626	1.419	1.709	1.578	2.221	2.749	2.790	3.081	3.136	3.308	3.976	4.455	5.405	6.348	7.446	8.577	8.787	7.847	6.865	4.964	3.118	2.380	2.277	2.077	2.319	2.741	2.977	3.763	4.683	5.578	6.666	7.874	9.589	11.28	12.07	12.95	14.26	14.33	14.10	13.82	13.84	11.98	11.48	10.38	8.127	6.736	5.489	4.709
340.0	4146	3520	1943	901.7	671.2	771.8	1134	1734	2491	3262	3911	4089	3694	2978	1945	1042	637.2	357.9	76.70	38.43	70.12	143.7	677.6	2307	2202	57.46	4.633	2.458	2.183	1.884	1.591	1.477	1.601	2.226	2.742	2.630	3.010	2.990	3.413	4.120	4.312	5.488	6.606	7.382	8.527	9.041	7.989	6.690	4.800	3.238	2.466	2.227	2.358	2.308	2.747	3.186	3.873	4.586	5.674	6.842	8.227	9.807	11.22	12.61	13.76	13.72	14.12	14.28	14.43	13.98	13.00	11.77	10.54	8.569	6.373	5.218	4.071
345.0	4140	3491	1859	910.9	668.0	795.8	1145	1731	2476	3234	3853	4007	3626	2974	1933	1000	489.3	398.7	189.0	41.19	34.08	47.71	166.5	717.7	2406	1670	45.52	3.059	2.234	2.203	1.681	1.353	1.561	2.084	2.731	2.871	2.759	3.264	3.154	3.780	4.372	5.276	6.476	7.553	8.488	8.934	7.588	6.754	4.738	3.163	2.490	2.314	2.172	2.252	2.687	2.970	3.885	4.360	5.598	6.761	8.226	9.635	10.93	12.28	13.21	13.78	13.73	14.00	13.99	13.61	12.59	11.64	10.82	8.201	6.389	5.176	3.944
350.0	3999	3304	1800	866.1	658.2	773.4	1090	1636	2332	3040	3601	3758	3425	2805	1848	933.7	403.8	239.6	267.5	139.7	39.74	28.45	52.80	174.2	724.3	1676	1264	215.9	11.45	2.472	1.779	1.697	1.667	1.970	2.538	2.636	2.553	3.040	3.048	3.503	4.267	5.038	6.161	7.232	8.312	8.660	7.520	6.636	4.488	3.021	2.327	2.353	2.107	2.271	2.549	2.840	3.559	4.389	5.374	6.383	7.657	9.213	10.04	11.57	12.44	12.82	13.25	13.31	13.42	12.62	11.95	11.13	10.10	7.944	6.075	4.612	3.584
355.0	3615	3036	1676	791.5	623.6	717.3	1016	1492	2126	2760	3247	3399	3118	2574	1690	854.1	362.0	156.0	148.0	235.6	126.6	34.18	30.27	54.20	173.8	403.9	1060	1990	333.1	10.58	2.262	1.643	1.718	1.981	2.233	2.397	2.624	2.816	2.643	3.311	3.875	5.069	5.696	6.638	7.881	8.051	6.973	6.133	3.983	2.715	2.132	2.159	2.138	2.213	2.519	2.692	3.481	4.172	4.978	6.116	6.967	8.072	9.120	10.51	11.51	12.11	11.55	12.30	12.42	11.36	11.19	10.35	9.304	7.158	5.725	4.062	3.376
360.0	3346	2830	1535	741.6	592.4	671.1	947.2	1378	1959	2531	2966	3118	2871	2371	1559	781.2	336.6	137.0	92.48	164.9	221.0	67.35	27.64	28.02	52.78	101.6	289.4	1477	1925	56.27	5.067	2.158	1.743	1.969	2.066	2.193	2.415	2.655	2.765	3.237	3.653	4.544	5.662	6.109	6.957	7.524	6.687	5.410	3.669	2.439	1.966	2.029	2.096	1.981	2.181	2.631	3.342	3.830	4.626	5.458	6.527	7.170	8.523	9.379	10.66	10.74	10.69	11.47	11.08	10.90	9.930	9.278	8.648	6.631	5.018	3.896	3.007
365.0	3035	2637	1427	696.8	545.0	629.9	863.9	1279	1782	2326	2712	2840	2607	2180	1438	721.8	312.3	130.7	78.26	92.16	200.4	164.7	44.24	24.14	27.07	34.46	75.33	426.9	1812	1653	48.07	3.345	2.133	1.897	2.017	2.263	2.428	2.528	2.631	2.980	3.276	4.220	5.040	5.669	6.316	6.751	5.843	5.015	3.617	2.359	1.749	1.878	1.932	2.073	2.183	2.468	2.916	3.622	4.351	4.915	6.052	6.860	7.934	8.567	9.910	9.797	9.615	10.23	9.895	9.986	9.011	8.552	7.889	6.435	4.570	3.870	2.923
370.0	2686	2320	1267	631.5	496.4	561.7	764.3	1106	1546	2008	2350	2450	2253	1894	1246	630.4	279.2	124.1	77.48	67.87	103.2	174.1	122.3	43.34	24.00	22.05	28.79	105.7	514.1	1408	1553	209.6	12.91	2.361	2.271	2.112	2.141	2.352	2.447	2.774	3.005	3.701	4.382	5.167	5.699	6.072	5.002	4.530	3.262	2.072	1.740	1.789	1.715	1.813	1.898	2.245	2.593	3.166	3.842	4.486	5.043	6.029	6.859	7.564	8.325	8.478	8.611	8.686	8.592	8.353	7.851	7.573	7.092	5.659	4.138	3.210	2.486
375.0	2306	1912	1055	559.8	432.2	484.1	656.5	947.5	1301	1691	1976	2054	1891	1594	1051	539.0	252.2	118.8	78.70	63.64	65.49	89.85	165.1	127.9	35.83	21.81	20.32	34.04	122.7	333.4	938.7	1862	309.3	12.47	2.580	2.325	2.105	2.070	2.258	2.569	2.920	3.380	3.992	4.352	4.699	4.873	4.149	4.069	2.851	1.979	1.481	1.749	1.547	1.651	1.725	1.930	2.224	2.838	3.227	4.024	4.468	5.063	5.738	6.525	7.060	7.206	7.824	7.560	7.422	6.961	6.712	6.509	5.959	4.644	3.458	2.770	2.072
380.0	2015	1705	921.3	485.5	392.1	429.9	579.7	822.5	1146	1461	1708	1774	1645	1375	915.7	473.6	228.6	117.1	79.39	65.35	58.73	61.48	106.4	176.8	66.22	25.89	19.85	19.12	36.53	81.95	243.9	1242	1550	227.6	5.956	2.355	2.178	2.162	2.233	2.380	2.575	3.070	3.494	4.058	4.260	4.324	4.082	3.576	2.651	1.823	1.343	1.677	1.466	1.510	1.484	1.809	2.005	2.450	2.826	3.560	4.005	4.512	5.079	5.970	6.167	6.450	6.634	6.838	6.776	6.383	5.760	5.882	5.156	4.112	2.929	2.400	2.082
385.0	1757	1522	860.6	435.6	353.7	384.1	508.6	704.1	997.2	1271	1492	1536	1422	1199	800.9	418.5	207.0	114.3	81.09	67.32	59.04	54.82	64.89	138.7	142.3	48.29	21.55	17.15	18.76	27.23	62.90	340.4	1266	1278	41.03	3.463	2.284	2.036	1.968	2.249	2.270	2.798	3.226	3.561	4.098	4.074	3.742	3.019	2.280	1.679	1.362	1.441	1.309	1.323	1.536	1.522	1.873	2.129	2.599	3.121	3.524	3.897	4.606	5.363	5.418	5.581	5.581	5.949	5.968	5.715	5.097	4.907	4.666	3.794	2.706	2.065	1.822
390.0	1476	1250	722.0	388.6	309.3	337.2	422.7	600.9	823.1	1058	1223	1270	1172	985.2	669.4	359.3	187.9	109.5	82.00	69.73	61.74	54.55	53.10	73.86	124.7	115.9	42.89	20.60	17.12	17.30	23.69	85.26	343.1	929.7	1132	167.1	12.42	2.323	1.990	1.907	2.162	2.294	2.735	2.928	3.398	3.536	3.016	2.669	2.141	1.334	1.132	1.302	1.255	1.268	1.368	1.439	1.592	1.853	2.230	2.720	3.056	3.221	3.907	4.271	4.502	4.570	4.610	4.848	4.767	4.667	4.127	4.157	3.970	3.300	2.526	2.013	1.728
395.0	1174	1032	614.1	340.5	264.9	284.8	362.0	484.1	674.0	851.3	986.5	1030	942.2	793.7	546.4	301.2	169.2	104.7	81.98	70.56	62.73	56.70	51.80	51.09	65.86	112.9	109.0	36.53	20.22	17.59	17.28	28.73	85.71	219.5	614.9	1285	265.0	12.19	2.053	1.804	2.064	2.012	2.240	2.554	2.675	2.791	2.604	2.289	1.743	1.189	1.051	1.136	1.088	1.148	1.161	1.293	1.588	1.731	1.818	2.251	2.539	2.653	3.018	3.633	3.678	3.642	3.784	3.955	3.892	3.780	3.444	3.476	3.022	2.671	2.037	1.849	1.579
400.0	1003	888.5	510.4	291.6	233.4	248.1	322.7	423.4	568.9	713.2	828.6	865.4	793.6	670.9	468.5	265.5	151.4	101.7	80.89	71.95	64.24	56.53	51.14	46.97	46.64	70.14	127.9	62.76	25.51	18.81	16.56	17.60	28.75	56.26	158.2	802.6	1160	200.6	5.157	1.866	1.935	1.949	2.138	2.356	2.650	2.642	2.364	2.094	1.554	1.083	0.960	1.034	0.996	1.009	1.081	1.097	1.304	1.484	1.673	2.073	2.174	2.443	2.875	3.028	3.065	3.231	3.364	3.449	3.320	3.179	3.040	2.934	2.819	2.312	1.948	1.621	1.464
405.0	868.0	763.4	459.0	263.6	209.8	230.5	277.6	371.8	493.2	602.6	703.0	738.6	683.8	577.1	405.5	231.0	140.7	97.20	79.51	71.33	62.60	56.52	51.02	46.10	41.89	45.63	92.25	113.2	47.89	21.50	18.03	15.43	16.80	20.32	41.61	217.1	891.6	954.7	36.34	2.835	1.911	2.040	2.107	2.092	2.172	2.333	2.018	1.697	1.378	0.975	0.873	0.881	0.953	0.946	1.020	1.059	1.275	1.259	1.543	1.823	1.815	2.149	2.386	2.668	2.738	2.830	2.804	2.994	2.987	2.852	2.589	2.686	2.433	2.098	1.725	1.485	1.292
410.0	701.9	613.6	374.9	225.0	186.2	197.8	238.5	308.1	408.5	503.7	575.7	603.8	553.3	472.5	335.5	197.4	127.5	92.18	76.81	69.25	63.42	56.74	51.12	46.28	40.94	38.80	51.02	89.54	95.97	42.46	20.51	16.71	14.84	13.18	15.34	53.33	236.9	660.8	796.5	153.3	10.71	1.988	1.864	1.903	1.856	2.039	1.738	1.584	1.176	0.946	0.824	0.878	0.846	0.900	0.969	0.959	1.114	1.209	1.258	1.465	1.548	1.821	2.123	2.219	2.386	2.345	2.393	2.362	2.511	2.329	2.195	2.154	2.027	1.882	1.529	1.290	1.155
415.0	567.9	493.8	301.8	194.0	164.9	173.9	196.2	254.6	325.1	410.8	461.7	483.0	445.1	377.4	268.9	168.9	115.5	88.11	75.63	66.83	62.64	55.78	51.16	46.39	41.47	36.62	37.66	47.78	85.84	89.16	35.52	18.79	15.12	12.01	10.55	16.72	57.30	154.3	410.7	880.8	233.1	9.601	1.960	1.748	1.675	1.704	1.441	1.360	1.091	0.897	0.746	0.801	0.818	0.828	0.855	0.824	0.921	1.070	1.127	1.289	1.379	1.624	1.694	1.845	2.099	1.973	2.022	2.120	2.056	2.013	1.989	1.755	1.661	1.470	1.210	1.130	1.131
420.0	499.5	434.0	259.8	170.9	151.5	157.8	177.5	219.5	279.2	345.3	385.4	413.9	374.8	322.1	229.3	152.3	107.5	82.84	71.48	65.84	59.42	55.95	50.92	44.21	40.05	36.90	33.85	35.50	54.04	97.57	58.21	23.49	15.66	12.87	9.199	9.267	16.95	38.42	104.5	534.6	857.2	172.5	4.793	1.621	1.562	1.480	1.382	1.221	0.980	0.807	0.654	0.828	0.800	0.756	0.778	0.805	0.807	1.068	1.002	1.122	1.309	1.493	1.524	1.700	1.697	1.715	1.837	1.865	1.679	1.806	1.646	1.645	1.446	1.279	1.169	1.004	1.044
425.0	432.4	370.3	220.6	154.8	139.0	144.8	156.6	193.3	248.2	298.3	343.9	355.2	320.8	278.0	201.4	135.3	98.55	79.73	69.45	63.75	57.61	55.17	49.37	42.77	38.15	36.34	33.84	33.29	36.41	68.81	87.82	42.28	17.97	13.09	9.569	8.125	8.330	12.01	26.88	143.4	640.0	749.6	34.20	2.377	1.548	1.645	1.300	1.149	0.960	0.757	0.654	0.771	0.797	0.770	0.790	0.896	0.785	0.910	0.961	1.126	1.053	1.296	1.387	1.487	1.374	1.555	1.446	1.597	1.559	1.570	1.450	1.442	1.405	1.227	1.132	0.977	0.967
430.0	628.2	310.7	208.1	136.3	127.3	123.7	137.4	166.7	213.6	252.6	288.2	297.0	263.7	229.2	171.3	119.1	90.52	75.73	67.41	60.80	55.86	51.39	47.50	42.30	38.05	34.48	33.11	31.55	31.33	40.63	67.42	73.06	34.15	14.85	10.18	8.197	7.386	7.111	9.516	35.36	170.1	519.5	674.8	138.2	8.922	1.591	1.238	1.144	0.919	0.694	0.642	0.801	0.740	0.797	0.806	0.779	0.775	0.878	0.950	1.003	1.001	1.170	1.136	1.246	1.312	1.366	1.354	1.301	1.357	1.265	1.329	1.300	1.201	1.133	0.951	0.904	0.839
435.0	1323	303.6	183.3	128.6	112.6	111.1	126.4	143.3	181.5	215.0	238.6	243.4	220.1	194.1	146.2	105.2	84.49	69.72	62.47	56.48	52.93	48.32	45.35	41.10	37.29	34.17	33.19	30.83	29.31	30.86	37.97	62.96	65.16	25.94	11.75	8.881	7.535	6.519	6.310	11.05	41.08	121.2	352.9	808.3	207.0	7.937	1.305	1.018	0.930	0.666	0.624	0.747	0.646	0.717	0.658	0.743	0.738	0.821	0.922	0.857	0.896	1.013	1.048	1.190	1.135	1.210	1.074	1.173	1.182	1.102	1.182	1.169	1.150	0.970	0.831	0.867	0.801
440.0	1855	487.7	164.3	116.0	105.3	109.4	120.2	132.3	161.4	190.3	215.4	213.6	194.7	168.9	129.1	94.73	77.53	66.04	59.94	55.34	50.77	47.69	44.15	39.73	36.12	33.90	32.78	31.18	29.81	28.34	28.83	41.21	67.77	45.36	16.20	9.205	7.630	6.861	6.120	5.950	12.21	30.11	90.66	522.6	760.4	33.93	3.197	1.201	0.954	0.733	0.686	0.770	0.711	0.686	0.755	0.633	0.824	0.757	0.892	0.755	0.892	0.914	0.993	1.119	1.034	1.121	1.073	1.133	1.093	1.068	1.032	1.116	1.078	1.022	0.851	0.844	0.784
445.0	1770	978.6	153.9	115.7	103.9	95.00	107.7	124.9	148.4	167.5	186.3	190.9	169.1	146.6	115.4	87.47	71.13	63.73	55.97	52.68	48.19	45.82	41.63	39.12	36.20	33.00	31.34	30.36	28.07	27.50	27.03	28.39	48.03	60.61	27.70	10.79	7.948	6.544	5.810	5.533	5.924	9.551	23.06	143.5	610.6	638.1	27.14	1.724	0.921	0.756	0.634	0.690	0.658	0.730	0.675	0.709	0.809	0.752	0.795	0.711	0.920	0.873	0.860	0.969	1.027	0.987	0.993	0.971	1.013	1.072	0.946	1.057	0.957	0.829	0.894	0.851	0.855
450.0	939.3	1751	410.6	101.8	88.59	89.79	95.44	108.7	128.1	146.4	157.9	160.9	145.8	124.2	99.43	78.31	64.52	58.14	51.63	48.07	45.18	42.42	38.98	36.34	34.29	31.90	30.12	29.32	28.26	26.77	24.85	23.75	28.72	44.91	46.30	22.83	9.655	7.142	6.202	5.529	5.030	5.118	7.589	34.72	164.7	477.3	586.5	120.0	6.458	0.891	0.733	0.753	0.691	0.659	0.638	0.705	0.770	0.705	0.754	0.773	0.805	0.858	0.875	0.901	0.912	0.915	0.933	0.864	0.896	0.925	0.884	0.908	0.850	0.761	0.823	0.757	0.745
455.0	345.7	1535	1218	123.8	84.51	82.27	89.65	97.58	109.0	125.8	131.5	133.0	119.7	102.4	86.50	68.28	56.90	50.75	46.72	43.81	39.70	37.86	36.22	33.52	31.84	29.77	28.24	27.89	26.55	25.75	23.87	22.10	21.73	25.21	39.73	41.48	17.63	8.416	6.551	5.957	5.100	4.733	4.391	10.08	38.91	111.5	302.7	657.9	166.8	5.687	0.890	0.924	0.684	0.784	0.613	0.641	0.797	0.665	0.741	0.669	0.784	0.794	0.769	0.834	0.752	0.759	0.962	0.894	0.796	0.858	0.781	0.817	0.796	0.758	0.741	0.746	0.672
460.0	203.2	853.5	1894	315.2	77.87	79.17	81.16	90.05	100.3	106.2	117.2	119.0	104.9	89.99	78.54	60.95	51.74	47.74	41.91	39.90	36.94	33.99	34.65	31.46	29.63	28.66	27.17	26.70	25.18	25.55	22.87	21.65	19.36	18.23	25.05	42.43	30.60	10.77	6.756	5.711	4.949	4.440	4.113	4.468	10.71	26.81	76.25	409.2	627.5	115.2	2.463	0.913	0.748	0.726	0.649	0.606	0.697	0.694	0.648	0.628	0.733	0.793	0.731	0.733	0.819	0.805	0.709	0.888	0.774	0.727	0.704	0.719	0.802	0.710	0.721	0.688	0.648
465.0	182.5	362.8	1858	836.3	83.78	71.43	75.22	81.69	92.32	97.36	104.5	105.8	93.31	81.33	68.78	55.07	48.11	44.17	40.45	37.87	34.50	32.68	31.81	28.34	27.45	27.12	25.72	24.96	24.49	24.13	22.00	20.64	18.07	16.55	17.39	29.81	37.49	18.99	7.775	5.550	4.854	4.355	4.117	3.387	4.410	7.822	19.01	111.4	516.6	501.4	21.99	1.582	0.829	0.819	0.681	0.625	0.709	0.654	0.607	0.610	0.732	0.741	0.723	0.770	0.741	0.708	0.692	0.724	0.707	0.730	0.766	0.761	0.735	0.635	0.603	0.626	0.547
470.0	204.1	170.4	918.9	1698	290.1	65.19	67.14	72.43	80.54	86.53	90.72	90.34	78.97	68.11	57.44	47.94	43.00	39.21	36.09	34.03	31.98	30.04	28.29	26.52	24.80	24.42	23.60	23.27	22.75	22.41	21.30	19.16	16.72	15.15	13.79	16.76	28.00	29.49	14.88	6.517	4.919	4.240	3.860	3.431	3.102	3.581	5.851	26.59	139.1	366.1	417.4	110.7	5.838	0.903	0.742	0.669	0.744	0.629	0.651	0.613	0.703	0.704	0.758	0.751	0.685	0.733	0.680	0.696	0.652	0.650	0.662	0.698	0.699	0.635	0.590	0.621	0.558
475.0	226.7	129.6	292.0	1449	788.7	75.14	57.91	64.63	70.26	75.15	76.95	76.69	67.58	58.23	49.18	40.55	36.50	34.29	32.75	29.43	27.73	27.63	25.52	24.22	22.54	22.57	20.93	21.29	20.50	20.95	19.88	17.94	15.80	13.85	12.64	11.91	15.07	25.36	24.96	11.37	5.532	3.958	3.722	3.233	3.111	2.812	2.677	7.285	32.28	84.48	205.1	478.3	147.4	5.170	0.832	0.746	0.710	0.608	0.690	0.619	0.676	0.623	0.643	0.716	0.695	0.647	0.714	0.638	0.604	0.595	0.566	0.604	0.613	0.642	0.567	0.578	0.569
480.0	211.0	150.6	126.2	785.7	1591	214.6	59.12	58.61	63.97	68.91	69.96	68.56	61.41	50.42	42.15	36.80	32.92	32.70	29.08	27.55	26.06	24.02	24.23	21.86	21.58	20.57	19.88	19.56	19.43	18.91	18.15	16.48	15.11	12.85	11.28	10.88	10.78	15.72	25.74	18.66	7.149	4.226	3.622	3.003	2.955	2.744	2.042	2.885	8.367	20.03	51.24	280.2	468.5	29.08	2.273	0.839	0.727	0.622	0.711	0.681	0.641	0.558	0.632	0.601	0.620	0.570	0.627	0.695	0.534	0.505	0.553	0.597	0.527	0.511	0.441	0.544	0.553
485.0	163.2	187.3	89.35	302.7	1649	588.6	52.36	55.53	59.95	59.74	64.44	60.28	53.04	45.92	39.73	34.11	32.14	30.02	27.89	26.08	24.63	22.89	23.27	20.81	20.58	19.85	18.21	18.45	18.18	17.71	16.81	15.62	14.67	12.64	10.64	9.920	9.371	10.12	18.65	22.87	11.82	4.932	3.753	3.038	2.721	2.602	2.215	1.845	2.983	5.567	12.52	76.38	371.9	403.6	24.27	1.258	0.700	0.680	0.687	0.661	0.630	0.570	0.608	0.629	0.519	0.544	0.568	0.675	0.505	0.549	0.570	0.584	0.571	0.468	0.527	0.549	0.504
490.0	115.2	198.5	109.3	114.6	854.8	1366	204.1	48.82	53.14	52.37	57.01	53.17	47.23	40.41	36.57	30.24	28.83	26.85	24.83	23.84	22.45	21.38	20.77	19.19	18.86	18.33	17.54	17.14	17.07	16.98	16.35	14.93	13.56	12.48	10.47	9.482	8.206	7.837	10.51	18.17	18.53	9.428	4.065	2.960	2.725	2.453	2.270	2.191	1.891	2.261	3.724	18.20	99.51	283.7	340.1	110.1	6.509	0.822	0.679	0.707	0.637	0.647	0.627	0.610	0.550	0.539	0.581	0.563	0.565	0.516	0.513	0.540	0.520	0.480	0.489	0.465	0.529
495.0	85.95	148.8	151.9	68.59	258.9	1310	811.0	57.76	47.37	48.42	49.02	47.34	42.19	34.99	32.26	26.72	26.52	24.48	22.28	21.18	20.30	19.68	19.00	17.98	17.34	16.65	15.99	16.19	15.49	15.55	15.34	14.07	13.01	11.45	10.15	8.781	7.988	7.300	7.446	9.969	16.85	16.34	7.125	3.072	2.684	2.351	2.140	2.175	1.852	1.594	1.742	4.975	23.16	65.56	203.8	476.2	163.0	6.343	0.752	0.745	0.709	0.600	0.582	0.605	0.555	0.560	0.541	0.515	0.495	0.562	0.541	0.527	0.539	0.487	0.480	0.499	0.443
500.0	70.54	109.1	187.5	72.67	93.94	731.4	1391	138.9	47.31	45.59	44.84	40.56	37.55	32.37	27.94	23.36	23.13	23.19	20.35	20.00	18.93	18.80	18.09	16.87	15.98	14.87	15.28	15.59	14.60	14.04	14.30	12.78	12.31	10.44	9.114	8.341	7.476	6.824	6.496	6.702	10.41	17.23	11.58	4.803	2.484	2.271	2.050	2.025	2.151	1.662	1.370	1.989	6.122	15.56	51.54	276.0	469.1	32.24	2.429	0.665	0.716	0.607	0.603	0.568	0.541	0.502	0.590	0.503	0.494	0.534	0.555	0.465	0.543	0.474	0.471	0.518	0.492
505.0	70.20	87.83	170.6	93.65	54.61	283.0	1489	402.2	44.72	41.29	40.56	37.93	34.45	28.68	25.63	22.18	20.93	19.67	19.38	17.98	18.23	16.71	16.25	16.09	14.59	14.03	13.98	14.22	13.30	13.25	13.00	11.63	10.78	9.689	8.624	8.108	6.972	6.443	5.857	5.559	6.542	13.39	15.25	7.849	2.917	2.163	2.037	1.926	2.016	1.698	1.522	1.397	2.165	4.300	12.54	73.38	343.8	461.5	27.24	1.384	0.679	0.612	0.593	0.583	0.537	0.554	0.503	0.445	0.502	0.513	0.464	0.444	0.447	0.560	0.489	0.512	0.500
510.0	61.99	65.07	105.8	136.5	53.72	95.22	807.2	1174	133.9	37.72	35.83	33.44	29.78	25.49	22.69	19.51	18.02	17.54	17.03	16.63	16.27	14.69	14.22	14.09	13.18	12.73	12.36	12.26	11.98	11.98	11.56	10.44	9.966	9.176	8.141	7.369	6.589	6.073	5.422	4.936	4.866	7.297	12.35	12.16	5.962	2.664	2.044	1.898	1.682	1.640	1.659	1.342	1.318	1.765	3.658	17.31	89.31	295.3	301.5	113.1	6.985	0.683	0.649	0.542	0.478	0.511	0.518	0.465	0.524	0.483	0.456	0.484	0.457	0.469	0.434	0.522	0.517
515.0	56.65	57.79	61.10	137.9	83.91	46.77	240.3	1262	632.6	39.01	31.99	29.96	25.63	23.01	18.61	16.88	15.87	15.59	14.25	14.12	13.78	13.70	13.43	12.00	12.05	11.70	10.55	10.71	11.05	10.74	10.07	9.306	8.783	7.727	7.429	6.426	5.812	5.506	4.800	4.385	4.223	4.525	6.243	11.24	10.54	4.487	2.292	1.659	1.755	1.511	1.526	1.549	1.292	1.045	1.476	4.603	20.65	67.45	148.1	378.9	156.3	6.547	0.677	0.575	0.569	0.537	0.525	0.507	0.470	0.446	0.445	0.585	0.487	0.449	0.402	0.501	0.438
520.0	55.93	52.17	43.36	109.5	121.9	39.57	77.93	747.1	1212	99.74	29.67	26.78	23.54	20.55	16.86	15.42	13.83	13.74	13.46	12.88	13.45	12.06	11.91	11.30	11.50	10.36	10.13	9.986	10.00	9.615	9.137	8.353	8.140	6.710	6.806	6.173	5.391	4.849	4.314	4.070	3.833	3.652	4.251	7.311	11.51	7.629	2.722	1.886	1.641	1.417	1.285	1.564	1.458	1.042	1.034	1.642	5.311	15.81	36.27	198.6	357.2	32.80	3.334	0.685	0.571	0.537	0.489	0.500	0.475	0.435	0.453	0.507	0.428	0.431	0.494	0.436	0.419
525.0	48.92	46.40	35.25	72.04	145.7	44.15	39.52	295.4	1432	299.8	28.74	24.50	21.89	18.76	16.19	13.70	13.61	12.73	12.48	12.04	11.15	11.00	10.36	9.964	10.14	9.071	9.497	8.990	8.980	8.776	8.476	7.617	7.376	6.637	6.151	5.593	4.852	4.667	4.104	3.746	3.392	3.382	3.210	4.298	8.778	9.607	4.814	2.032	1.476	1.357	1.145	1.352	1.619	1.244	0.955	1.037	1.819	4.237	8.969	50.79	222.4	253.8	29.61	1.490	0.506	0.505	0.541	0.463	0.456	0.446	0.436	0.443	0.441	0.485	0.521	0.429	0.440
530.0	49.31	40.76	32.18	41.03	117.9	85.66	30.59	92.11	824.5	1043	101.7	22.74	18.83	16.91	14.04	12.37	11.92	11.43	10.86	10.66	10.07	9.542	9.469	8.901	8.666	8.242	8.226	8.099	7.948	7.945	7.532	6.970	6.390	5.999	5.277	5.066	4.684	4.107	3.713	3.406	3.315	2.805	2.824	2.892	4.811	8.118	7.787	3.571	1.557	1.210	1.054	1.134	1.244	1.480	1.157	0.891	1.052	1.537	2.609	11.91	55.98	157.2	227.8	108.8	8.229	0.630	0.526	0.554	0.417	0.455	0.399	0.457	0.446	0.436	0.464	0.499	0.409
535.0	55.50	43.34	28.87	33.62	62.06	128.0	42.43	39.92	243.6	1177	520.3	21.19	17.68	14.81	12.33	11.54	10.84	9.188	9.189	8.691	8.896	7.888	8.109	8.046	7.546	7.222	7.129	6.772	6.630	6.795	6.108	6.082	5.575	5.025	4.939	4.468	4.187	3.683	3.391	3.030	2.871	2.493	2.427	2.328	2.683	4.368	7.706	6.439	2.607	1.305	1.022	0.865	0.996	1.063	1.343	1.106	0.921	0.836	1.133	3.208	13.06	35.90	86.20	257.2	147.1	9.228	0.618	0.562	0.449	0.403	0.539	0.439	0.431	0.399	0.446	0.434	0.400
540.0	58.74	41.89	26.50	23.95	33.73	126.0	63.78	30.43	78.81	703.5	1050	58.98	14.87	12.91	11.18	9.577	8.808	8.311	7.503	7.666	7.683	7.335	7.226	7.023	6.564	6.177	5.935	6.160	6.291	5.953	5.513	5.302	4.860	4.651	4.469	3.860	3.737	3.184	3.230	2.762	2.550	2.456	2.241	2.015	2.028	2.534	4.994	7.017	4.158	1.519	0.988	0.891	0.952	0.908	1.043	1.302	0.894	0.686	0.814	1.249	3.493	8.616	20.66	112.5	262.2	105.3	4.162	0.564	0.549	0.479	0.471	0.427	0.438	0.458	0.436	0.388	0.416
545.0	57.01	38.59	29.66	21.81	23.18	98.28	99.66	30.58	39.72	268.2	1251	211.1	12.88	12.39	9.881	8.882	7.557	7.642	7.227	6.773	6.999	6.421	6.545	6.278	6.395	5.645	5.586	5.507	5.682	5.267	4.729	4.658	4.563	4.165	3.805	3.275	3.236	3.035	2.939	2.555	2.340	2.226	1.965	1.964	1.821	1.942	2.973	5.731	5.339	2.455	1.120	0.818	0.858	0.737	0.894	1.216	1.228	0.747	0.673	0.778	1.289	2.471	5.110	27.44	133.7	238.3	31.16	2.009	0.551	0.492	0.467	0.428	0.394	0.451	0.431	0.388	0.375
550.0	63.40	37.70	25.46	20.99	18.82	51.24	120.7	50.90	29.66	83.45	691.5	805.2	55.39	10.56	8.666	7.724	6.978	6.804	6.059	5.940	5.711	5.754	5.221	5.253	5.121	5.078	4.876	4.486	4.649	4.710	4.239	4.109	3.755	3.693	3.289	2.914	2.768	2.672	2.491	2.250	2.174	1.915	1.803	1.693	1.670	1.674	1.733	3.164	5.057	3.852	1.958	0.898	0.730	0.703	0.722	0.830	1.147	1.118	0.797	0.608	0.725	1.029	1.569	6.638	32.37	106.1	159.0	91.64	9.693	0.636	0.508	0.447	0.426	0.419	0.423	0.414	0.413
555.0	66.32	34.41	25.12	18.51	17.16	25.34	89.84	92.80	28.07	37.20	200.5	958.2	211.8	11.20	7.742	6.683	5.643	6.169	5.082	5.214	5.038	4.945	4.687	4.214	4.215	4.258	3.896	3.920	3.683	3.649	3.856	3.483	3.136	3.150	2.617	2.592	2.407	2.314	2.068	1.980	1.915	1.714	1.600	1.582	1.459	1.343	1.228	1.665	2.765	3.894	3.215	1.415	0.746	0.646	0.632	0.673	0.713	1.043	0.982	0.626	0.632	0.702	0.759	1.946	7.657	24.13	50.49	151.3	118.4	10.81	0.577	0.493	0.464	0.416	0.424	0.347	0.426
560.0	64.43	40.03	26.51	17.31	16.43	19.55	54.59	117.6	38.54	31.99	66.52	582.5	688.8	32.77	7.322	5.845	4.856	4.942	4.369	4.413	4.456	4.246	4.349	3.514	3.662	3.647	3.251	3.401	3.411	3.306	3.112	2.804	2.776	2.465	2.343	2.057	2.111	2.083	1.890	1.840	1.738	1.472	1.548	1.344	1.341	1.226	1.118	1.119	1.519	2.756	3.670	2.158	0.901	0.653	0.605	0.555	0.554	0.706	1.072	0.926	0.642	0.556	0.546	0.891	2.116	5.883	12.01	57.43	163.2	84.32	5.686	0.497	0.571	0.428	0.397	0.392	0.403
565.0	77.77	47.27	30.58	17.81	16.47	18.05	33.37	117.5	62.38	35.04	43.24	231.2	912.9	132.7	7.281	4.845	4.626	4.191	4.110	3.593	3.941	3.397	3.572	3.279	2.976	3.283	2.915	3.124	2.714	2.815	2.760	2.734	2.249	2.298	2.027	2.025	1.887	1.711	1.764	1.635	1.495	1.498	1.397	1.247	1.212	1.085	0.982	0.938	0.934	1.753	3.064	2.751	1.233	0.746	0.577	0.505	0.567	0.652	0.893	1.084	0.707	0.568	0.555	0.630	0.900	1.804	3.128	13.89	70.41	147.3	33.09	2.376	0.527	0.436	0.451	0.402	0.437
570.0	104.7	66.42	41.31	22.97	16.71	18.60	24.93	80.62	106.8	56.68	59.14	102.6	553.9	528.0	32.60	4.789	4.242	3.773	3.407	3.114	3.237	3.177	2.758	2.644	2.593	2.666	2.412	2.333	2.325	2.439	2.307	2.296	2.085	2.103	1.842	1.841	1.637	1.558	1.529	1.403	1.378	1.283	1.245	1.176	1.061	0.969	0.881	0.821	0.766	1.014	1.625	2.454	1.947	1.063	0.609	0.528	0.479	0.586	0.619	0.864	0.969	0.735	0.613	0.609	0.679	0.886	1.232	3.619	16.80	56.50	97.47	66.09	9.854	0.533	0.441	0.419	0.404
575.0	134.1	104.1	56.86	27.29	18.82	17.88	24.60	50.81	129.6	98.85	87.33	96.44	203.5	667.4	145.8	5.317	3.321	3.179	3.288	2.653	3.012	2.331	2.535	2.259	2.110	2.355	2.205	2.061	2.210	2.032	1.977	1.728	1.822	1.788	1.800	1.569	1.496	1.361	1.397	1.238	1.216	1.222	1.131	1.000	0.991	1.053	0.894	0.797	0.701	0.745	0.789	1.466	2.136	1.468	0.789	0.548	0.491	0.525	0.520	0.638	0.766	1.024	0.928	0.641	0.749	0.800	0.842	1.409	4.305	13.24	27.11	84.44	83.25	10.74	0.438	0.491	0.375
580.0	158.8	122.5	68.53	32.20	20.14	17.87	24.62	42.93	121.6	143.0	105.5	114.2	112.9	429.8	475.6	15.53	3.374	2.986	2.631	2.357	2.357	2.016	2.268	2.114	2.048	2.123	1.814	2.014	1.798	1.737	1.687	1.596	1.733	1.522	1.598	1.416	1.329	1.300	1.228	1.201	1.179	1.048	0.951	1.028	0.975	0.960	0.925	0.836	0.673	0.653	0.603	0.867	1.711	1.758	1.063	0.590	0.489	0.522	0.596	0.552	0.646	0.991	1.129	0.790	0.798	0.794	0.814	0.926	1.525	3.545	6.649	28.33	94.14	36.21	4.905	0.464	0.419
585.0	165.0	133.2	80.49	32.39	20.88	19.40	25.52	39.67	99.42	169.2	130.3	123.0	101.7	187.1	658.0	69.30	3.409	3.254	2.635	2.518	2.183	2.068	2.065	1.887	1.826	1.870	1.514	1.668	1.450	1.514	1.491	1.550	1.429	1.391	1.519	1.376	1.303	1.064	1.123	1.040	1.111	1.030	0.968	1.067	1.002	1.013	0.850	0.758	0.664	0.621	0.560	0.656	1.124	1.752	1.322	0.662	0.506	0.461	0.565	0.518	0.592	0.844	1.150	1.098	0.909	0.926	0.862	0.886	0.890	1.334	2.076	6.985	35.60	84.20	31.09	2.343	0.432
590.0	175.9	156.7	88.76	37.07	22.09	19.27	25.18	45.08	82.53	170.6	167.3	141.7	109.2	82.52	402.0	292.0	13.44	2.915	2.184	2.213	1.872	1.789	1.867	1.662	1.707	1.650	1.454	1.460	1.371	1.359	1.308	1.270	1.310	1.386	1.303	1.305	1.049	1.088	1.006	0.917	0.982	0.936	1.020	0.881	0.989	1.013	0.879	0.739	0.590	0.561	0.512	0.539	0.665	1.184	1.450	1.114	0.671	0.532	0.509	0.508	0.627	0.675	0.909	1.082	1.027	0.881	0.925	0.807	0.817	0.973	1.067	1.997	8.575	30.25	57.60	42.98	7.811
595.0	185.6	149.7	95.29	39.10	21.60	19.72	26.54	47.92	79.24	146.4	209.6	153.2	113.2	60.75	120.8	402.6	83.32	2.862	2.266	2.011	1.778	1.453	1.498	1.498	1.711	1.456	1.258	1.209	1.251	1.120	1.040	1.209	1.195	1.162	1.267	1.101	1.057	0.871	0.884	0.791	0.912	0.881	0.884	0.966	0.955	0.845	0.936	0.735	0.569	0.425	0.442	0.450	0.506	0.740	1.144	1.370	0.916	0.595	0.555	0.538	0.568	0.650	0.721	0.939	1.233	1.236	0.937	0.982	0.895	0.797	0.756	0.907	2.285	7.105	15.46	47.31	37.45
600.0	184.8	165.7	90.20	36.93	19.78	20.29	27.78	43.80	76.90	126.1	214.6	171.7	118.0	58.26	45.08	275.0	228.8	6.573	2.189	1.894	1.640	1.375	1.243	1.319	1.504	1.245	1.211	1.143	1.074	1.026	1.046	1.106	1.063	1.149	1.152	0.966	1.047	0.902	0.955	0.848	0.884	0.825	0.743	0.920	0.848	0.883	0.851	0.759	0.604	0.476	0.460	0.436	0.447	0.502	0.825	1.207	1.015	0.775	0.555	0.550	0.587	0.683	0.681	0.898	1.085	1.296	1.084	0.947	0.926	0.814	0.760	0.645	0.889	1.998	3.790	15.54	52.42
605.0	183.3	165.3	95.48	39.34	19.72	21.83	28.64	47.18	77.22	120.0	204.2	188.0	121.1	64.16	28.73	114.0	334.8	31.53	2.104	1.786	1.452	1.515	1.298	1.303	1.315	1.434	1.239	1.070	1.111	1.002	0.880	1.043	1.043	0.998	1.067	0.945	1.052	0.985	0.828	0.829	0.795	0.751	0.763	0.837	0.780	0.906	0.788	0.797	0.601	0.448	0.402	0.387	0.390	0.432	0.611	0.948	1.024	0.862	0.591	0.601	0.647	0.704	0.684	0.821	0.914	1.196	1.213	0.868	0.906	0.806	0.779	0.614	0.598	0.826	1.220	3.894	20.09
610.0	178.7	161.2	97.57	38.01	22.33	20.75	29.67	49.15	78.91	117.9	171.9	206.5	129.7	66.44	28.36	39.98	229.8	153.4	5.864	1.716	1.427	1.365	1.287	1.226	1.175	1.195	1.104	0.947	1.032	0.946	0.861	0.933	0.887	0.973	1.017	0.932	0.834	0.890	0.832	0.749	0.716	0.683	0.764	0.741	0.767	0.821	0.743	0.734	0.571	0.425	0.389	0.393	0.379	0.424	0.454	0.598	0.898	1.040	0.841	0.627	0.587	0.628	0.718	0.812	0.908	0.984	1.156	1.142	0.946	0.809	0.732	0.568	0.566	0.564	0.628	1.215	4.957
615.0	176.1	147.5	93.97	39.74	20.49	23.53	29.87	47.71	79.62	114.4	150.9	196.6	144.0	71.50	31.48	22.52	72.53	257.1	42.82	2.019	1.304	1.206	1.169	1.044	1.099	0.922	0.996	0.991	1.017	0.864	0.868	0.748	0.768	0.829	0.876	0.907	0.765	0.773	0.829	0.646	0.638	0.615	0.759	0.752	0.680	0.804	0.705	0.692	0.575	0.377	0.373	0.427	0.362	0.376	0.359	0.432	0.668	0.933	0.999	0.757	0.569	0.655	0.748	0.782	0.809	0.958	0.896	1.151	1.080	0.824	0.727	0.609	0.618	0.551	0.507	0.595	1.494
620.0	162.8	152.6	88.79	36.76	20.96	23.29	31.01	48.09	78.12	112.0	144.8	176.6	159.6	72.59	35.52	19.52	24.50	194.9	97.36	3.263	1.289	1.139	1.390	1.103	0.995	0.923	0.984	0.860	0.829	0.866	0.861	0.830	0.769	0.900	0.879	0.905	0.692	0.627	0.761	0.757	0.562	0.667	0.642	0.699	0.670	0.694	0.697	0.602	0.538	0.382	0.348	0.413	0.415	0.396	0.375	0.370	0.511	0.779	0.942	0.856	0.668	0.689	0.634	0.753	0.750	0.902	0.929	1.069	1.024	1.027	0.704	0.579	0.639	0.546	0.452	0.509	0.742
625.0	171.0	145.7	82.48	39.86	22.00	24.94	31.57	49.32	80.79	113.0	139.7	159.8	163.2	80.54	38.59	21.41	12.49	86.47	208.0	14.84	1.546	1.090	1.221	1.071	1.058	0.942	0.808	0.845	0.851	0.792	0.747	0.741	0.776	0.757	0.783	0.768	0.718	0.611	0.610	0.786	0.604	0.679	0.624	0.644	0.757	0.751	0.650	0.609	0.488	0.406	0.354	0.368	0.372	0.422	0.367	0.360	0.462	0.534	0.798	0.946	0.756	0.673	0.683	0.739	0.746	0.798	0.877	0.903	0.887	0.979	0.784	0.659	0.542	0.503	0.445	0.487	0.571
630.0	177.3	150.2	80.41	36.53	23.34	25.62	35.97	52.95	81.67	111.2	140.2	152.8	151.3	96.77	44.82	24.09	10.67	25.05	164.3	98.92	3.105	1.051	1.070	0.913	0.918	0.850	0.803	0.760	0.850	0.747	0.762	0.667	0.687	0.827	0.820	0.749	0.622	0.588	0.583	0.717	0.658	0.610	0.614	0.718	0.672	0.668	0.669	0.545	0.480	0.403	0.386	0.372	0.374	0.374	0.370	0.377	0.430	0.529	0.640	0.747	0.750	0.752	0.734	0.742	0.790	0.756	0.798	0.861	0.895	0.977	0.958	0.741	0.553	0.568	0.488	0.471	0.455
635.0	168.1	139.6	86.57	35.78	24.07	27.39	37.67	55.51	84.07	113.5	141.1	148.5	136.6	112.9	53.93	26.71	11.91	9.033	53.56	179.3	23.39	1.248	1.038	0.911	1.036	0.845	0.906	0.660	0.706	0.709	0.677	0.670	0.723	0.803	0.697	0.665	0.567	0.586	0.626	0.629	0.639	0.638	0.632	0.671	0.763	0.679	0.648	0.527	0.551	0.383	0.361	0.349	0.424	0.376	0.372	0.385	0.486	0.481	0.535	0.645	0.815	0.897	0.746	0.780	0.730	0.707	0.851	0.797	0.828	0.871	0.881	0.841	0.691	0.522	0.511	0.593	0.438
640.0	165.3	132.9	81.72	38.52	26.31	26.56	38.13	54.78	82.72	109.9	137.4	144.0	124.6	118.7	62.06	27.64	12.02	5.294	15.55	150.2	70.16	1.911	1.143	0.989	0.789	0.772	0.761	0.719	0.646	0.690	0.653	0.614	0.618	0.724	0.678	0.643	0.551	0.523	0.569	0.551	0.642	0.758	0.656	0.668	0.692	0.695	0.573	0.564	0.480	0.438	0.376	0.378	0.375	0.433	0.361	0.372	0.421	0.459	0.505	0.647	0.731	0.811	0.824	0.784	0.825	0.748	0.876	0.834	0.830	0.890	0.802	0.822	0.707	0.646	0.430	0.539	0.474
645.0	161.8	137.7	74.78	36.17	27.39	26.98	36.19	52.95	82.55	109.8	131.8	140.6	121.7	112.0	71.84	29.75	12.15	4.916	5.480	70.86	140.6	7.719	1.082	0.974	0.888	0.943	0.698	0.844	0.665	0.684	0.679	0.632	0.626	0.598	0.621	0.607	0.510	0.491	0.488	0.558	0.627	0.676	0.726	0.635	0.622	0.654	0.658	0.479	0.414	0.392	0.323	0.345	0.368	0.425	0.398	0.370	0.391	0.403	0.492	0.573	0.620	0.795	0.876	0.850	0.839	0.844	0.913	0.744	0.831	0.923	0.750	0.708	0.759	0.708	0.478	0.476	0.513
650.0	171.4	138.8	77.56	35.72	25.58	31.19	32.79	54.60	85.46	108.8	130.6	138.1	122.3	101.0	79.31	31.79	12.60	4.474	3.066	22.86	154.6	34.37	1.206	0.944	0.926	0.813	0.721	0.835	0.684	0.650	0.612	0.653	0.633	0.641	0.541	0.556	0.534	0.521	0.455	0.561	0.593	0.606	0.724	0.617	0.570	0.678	0.647	0.471	0.421	0.354	0.317	0.389	0.331	0.378	0.463	0.387	0.385	0.460	0.487	0.593	0.551	0.747	0.761	0.901	0.978	0.859	0.812	0.791	0.809	0.806	0.810	0.693	0.694	0.800	0.520	0.502	0.453
