Sample:	'1
File name:	T2025030611’≈πŸ«≈.FD3
Run date:	'12:53:09, 03/10/2025
Operator:	Administrator
Comment:	'

Instrument
Model:	F-2700 FL Spectrophotometer
Serial number:	23B8-004
ROM Version:	4J14000 07

Instrument parameters
Measurement type:	3-D scan
Data mode:	Fluorescence
EX  Start WL:	220.0 nm
EX  End WL:	600.0 nm
EX Sampling interval:	5.0 nm
EM  Start WL:	230.0 nm
EM  End WL:	650.0 nm
EM Sampling interval:	5.0 nm
Scan speed:	12000 nm/min
EX Slit:	5.0 nm
EM Slit:	5.0 nm
PMT Voltage:	700 V
Response:	Auto 
Corrected spectra:	Off
Contour interval:	50.000

Peak integration
Integration method:	Rectangular
Sensitivity:	1
Threshold:	1.000

Peaks
No.	ApexEX/EM(nm)	Height(Data)
1	225.0/575.0	67.72
2	225.0/585.0	66.79
3	225.0/615.0	63.64
4	225.0/635.0	62.28
5	230.0/340.0	1999
6	230.0/625.0	60.03
7	230.0/640.0	62.41
8	240.0/265.0	323.0
9	245.0/410.0	948.1
10	245.0/535.0	214.8
11	250.0/545.0	166.1
12	255.0/280.0	515.8
13	255.0/560.0	137.8
14	260.0/570.0	108.6
15	265.0/585.0	107.9
16	270.0/600.0	103.7
17	275.0/310.0	1747
18	275.0/325.0	1778
19	275.0/435.0	1167
20	275.0/610.0	119.3
21	280.0/315.0	1812
22	280.0/410.0	1254
23	280.0/620.0	111.2
24	285.0/635.0	86.88
25	320.0/365.0	496.4
26	340.0/415.0	765.8
27	445.0/525.0	19.79
28	475.0/340.0	6.323
29	505.0/275.0	3.159
30	510.0/280.0	3.235
31	520.0/285.0	3.716
32	550.0/305.0	8.830
33	560.0/310.0	9.501
34	570.0/315.0	10.04
35	575.0/320.0	10.06
36	585.0/325.0	9.072

Data points
	220.0	225.0	230.0	235.0	240.0	245.0	250.0	255.0	260.0	265.0	270.0	275.0	280.0	285.0	290.0	295.0	300.0	305.0	310.0	315.0	320.0	325.0	330.0	335.0	340.0	345.0	350.0	355.0	360.0	365.0	370.0	375.0	380.0	385.0	390.0	395.0	400.0	405.0	410.0	415.0	420.0	425.0	430.0	435.0	440.0	445.0	450.0	455.0	460.0	465.0	470.0	475.0	480.0	485.0	490.0	495.0	500.0	505.0	510.0	515.0	520.0	525.0	530.0	535.0	540.0	545.0	550.0	555.0	560.0	565.0	570.0	575.0	580.0	585.0	590.0	595.0	600.0
230.0	51.46	578.7	2323	1143	79.91	10.96	8.076	7.329	6.669	5.719	5.197	5.218	4.200	3.821	3.122	2.675	2.293	2.096	1.763	1.647	1.660	1.393	1.338	1.254	1.232	1.121	1.123	1.073	1.039	0.964	0.846	0.846	0.756	0.729	0.703	0.647	0.626	0.582	0.560	0.585	0.514	0.610	0.588	0.560	0.527	0.440	0.769	3.660	7.847	7.378	3.509	1.017	0.471	0.383	0.417	0.394	0.434	0.427	0.429	0.425	0.425	0.408	0.413	0.409	0.449	0.411	0.415	0.411	0.407	0.422	0.413	0.440	0.442	0.440	0.412	0.464	0.507
235.0	88.74	178.3	1187	2833	599.7	126.1	9.728	7.831	7.910	5.878	5.820	5.062	4.065	3.950	3.097	2.671	2.277	2.365	2.018	1.654	1.575	1.552	1.267	1.228	1.219	1.167	1.056	1.020	0.932	1.065	0.847	0.770	0.822	0.773	0.663	0.613	0.585	0.666	0.520	0.567	0.511	0.539	0.577	0.624	0.598	0.588	0.567	1.192	2.865	5.629	9.232	11.21	6.613	1.792	0.484	0.451	0.402	0.469	0.426	0.512	0.409	0.466	0.400	0.393	0.396	0.451	0.425	0.442	0.489	0.427	0.437	0.462	0.431	0.431	0.381	0.435	0.470
240.0	107.9	125.4	333.0	1957	3383	500.0	69.55	9.644	8.009	7.542	5.943	4.959	4.722	3.724	3.321	2.787	2.587	2.500	1.803	1.755	1.524	1.637	1.321	1.424	1.225	1.235	1.057	1.099	0.896	1.125	0.828	0.875	0.784	0.787	0.637	0.690	0.573	0.606	0.478	0.556	0.490	0.545	0.536	0.559	0.675	0.721	0.703	0.699	0.972	1.676	4.239	11.77	18.08	13.68	5.504	1.262	0.430	0.456	0.402	0.422	0.420	0.509	0.449	0.465	0.417	0.463	0.453	0.474	0.455	0.460	0.473	0.465	0.486	0.458	0.497	0.483	0.452
245.0	82.16	162.2	147.7	594.5	3066	3588	388.6	30.42	9.992	7.364	6.560	5.576	5.290	4.730	3.394	2.915	2.550	2.281	1.844	1.679	1.469	1.635	1.423	1.132	1.289	1.268	1.084	1.161	1.056	0.978	0.966	0.965	0.746	0.800	0.619	0.642	0.577	0.629	0.608	0.558	0.566	0.542	0.527	0.538	0.588	0.678	0.815	0.801	0.692	0.687	1.300	3.626	10.43	19.87	22.62	13.82	4.052	0.745	0.441	0.441	0.432	0.523	0.426	0.399	0.469	0.504	0.445	0.444	0.432	0.498	0.422	0.472	0.443	0.426	0.551	0.436	0.507
250.0	52.74	106.0	207.2	230.3	900.0	2963	4131	1373	104.9	10.00	8.368	6.672	6.219	5.041	3.805	3.256	2.595	2.566	2.040	1.804	1.583	1.556	1.529	1.338	1.284	1.387	1.185	1.062	1.076	1.121	1.045	0.983	0.756	0.772	0.754	0.685	0.652	0.649	0.651	0.566	0.638	0.568	0.561	0.539	0.525	0.595	0.569	0.844	0.969	0.858	0.831	1.253	2.749	5.982	11.73	18.36	24.01	23.59	12.64	4.405	0.785	0.479	0.463	0.465	0.510	0.445	0.439	0.440	0.493	0.507	0.455	0.453	0.454	0.453	0.477	0.428	0.487
255.0	46.10	53.24	123.9	267.3	303.9	727.7	2725	6914	1951	127.8	11.18	8.671	6.904	5.334	4.222	3.458	2.977	2.718	2.299	1.977	1.794	1.756	1.560	1.446	1.298	1.318	1.269	1.117	1.017	1.179	1.063	0.830	0.834	0.836	0.763	0.662	0.659	0.652	0.619	0.565	0.671	0.650	0.584	0.557	0.512	0.550	0.450	0.528	0.630	0.846	1.242	1.536	1.297	1.703	3.007	4.605	8.174	19.48	38.29	29.29	19.38	4.944	0.664	0.536	0.536	0.477	0.477	0.498	0.479	0.477	0.489	0.468	0.479	0.469	0.490	0.466	0.568
260.0	46.51	41.90	57.71	204.9	308.8	230.5	774.8	4854	8203	1531	69.65	11.70	8.055	6.690	4.927	3.956	3.066	3.036	2.055	2.337	2.043	1.951	1.489	1.457	1.352	1.331	1.219	1.152	1.266	1.192	1.095	0.923	0.901	0.876	0.806	0.687	0.627	0.714	0.601	0.600	0.659	0.630	0.587	0.596	0.561	0.563	0.482	0.487	0.481	0.558	0.849	1.578	1.778	1.268	1.184	1.404	2.291	5.381	15.29	33.27	53.18	28.54	15.55	2.417	0.653	0.501	0.546	0.450	0.504	0.496	0.460	0.470	0.500	0.482	0.515	0.487	0.544
265.0	44.93	41.50	37.74	94.22	323.0	250.4	215.7	1482	7266	8757	1107	27.16	10.77	7.592	6.344	4.494	3.458	3.354	2.474	2.313	2.168	1.992	1.640	1.403	1.404	1.487	1.357	1.143	1.279	1.200	1.077	1.027	1.064	0.886	0.931	0.741	0.713	0.727	0.700	0.682	0.632	0.666	0.618	0.640	0.600	0.544	0.503	0.444	0.428	0.454	0.482	0.842	1.643	2.074	1.511	0.943	0.990	1.682	3.924	9.621	26.64	49.35	63.69	26.22	9.703	1.124	0.539	0.460	0.499	0.570	0.490	0.514	0.568	0.516	0.547	0.457	0.518
270.0	67.68	54.38	42.45	50.17	146.0	320.3	274.2	389.1	2148	7104	9885	3212	66.07	11.70	7.907	5.903	4.696	3.668	3.075	2.439	2.267	2.135	1.747	1.560	1.563	1.480	1.338	1.299	1.239	1.181	1.101	1.014	1.052	1.001	0.916	0.793	0.782	0.752	0.692	0.638	0.636	0.617	0.657	0.692	0.606	0.619	0.545	0.563	0.481	0.456	0.409	0.603	0.790	1.246	1.642	2.049	1.868	1.277	1.413	2.623	6.622	14.17	29.60	44.38	57.85	50.27	16.69	7.481	1.176	0.617	0.540	0.528	0.537	0.550	0.519	0.589	0.535
275.0	110.5	107.8	94.89	63.20	66.87	142.7	411.3	335.5	540.4	1723	5910	9999.9	1223	69.96	11.28	8.463	5.428	4.406	3.337	3.160	2.298	2.308	2.099	1.871	1.753	1.598	1.414	1.364	1.196	1.281	1.148	1.247	1.114	1.101	1.007	0.839	0.848	0.805	0.747	0.611	0.638	0.637	0.795	0.792	0.768	0.759	0.628	0.670	0.670	0.506	0.512	0.526	0.624	0.707	0.871	1.173	2.259	3.159	2.110	1.481	2.086	3.782	7.283	10.68	17.13	36.31	72.34	82.52	25.82	8.538	0.837	0.654	0.543	0.556	0.549	0.588	0.570
280.0	147.2	178.1	159.6	104.2	69.37	74.01	255.7	515.8	295.3	464.3	1651	8625	9999.9	923.3	35.33	10.67	7.050	5.191	4.187	3.330	2.689	2.546	2.123	1.881	1.759	1.617	1.657	1.416	1.181	1.244	1.294	1.125	1.053	1.105	1.039	0.924	0.897	0.868	0.778	0.698	0.704	0.692	0.782	0.751	0.779	0.890	0.851	0.875	0.893	0.769	0.721	0.623	0.642	0.625	0.658	0.715	1.198	2.243	3.235	2.907	1.814	1.603	2.366	3.061	4.656	9.516	25.85	59.62	88.64	75.86	20.89	3.937	0.880	0.686	0.615	0.597	0.547
285.0	201.9	250.7	244.0	162.6	93.53	70.45	130.0	433.8	519.1	256.9	499.7	2627	9999.9	8341	606.4	17.02	9.573	6.155	5.122	3.922	3.258	2.599	2.570	2.020	1.852	1.672	1.671	1.533	1.300	1.296	1.277	1.223	1.129	1.205	1.099	1.087	0.927	0.944	0.866	0.898	0.778	0.698	0.821	0.871	0.873	1.030	0.969	1.075	1.153	0.956	0.819	0.735	0.770	0.697	0.655	0.746	0.807	1.146	1.974	3.246	3.716	2.361	1.558	1.642	2.081	3.113	6.770	16.02	37.35	75.90	95.03	31.32	15.05	1.752	0.647	0.653	0.592
290.0	275.7	356.3	354.9	246.6	142.5	104.9	121.5	235.3	533.5	597.8	398.6	824.5	3068	8853	9548	2191	36.10	9.086	6.495	4.845	3.633	2.987	2.605	2.270	2.061	1.888	1.846	1.740	1.503	1.518	1.381	1.335	1.259	1.219	1.193	1.224	1.129	1.044	1.014	0.963	0.843	0.812	0.858	0.963	0.978	1.144	1.178	1.415	1.419	1.262	1.001	1.045	0.983	0.820	0.824	0.818	0.850	0.952	1.275	1.733	2.693	3.541	3.684	3.141	2.309	2.091	2.917	4.959	9.832	20.25	37.11	51.26	68.97	58.50	42.29	10.73	1.908
295.0	326.7	451.6	456.5	331.9	214.4	166.2	166.5	222.9	353.2	720.5	837.4	595.7	1001	2261	6165	9999.9	677.3	36.34	9.674	6.149	4.359	3.997	3.216	2.886	2.487	2.134	1.765	1.742	1.547	1.625	1.554	1.269	1.220	1.426	1.394	1.315	1.144	1.215	0.976	0.982	0.953	0.958	0.841	1.085	1.038	1.402	1.419	1.807	1.685	1.447	1.284	1.299	1.105	1.052	0.922	1.007	1.117	1.184	1.279	1.436	1.941	2.282	2.988	4.650	5.430	3.831	2.967	3.268	4.278	6.374	9.831	13.02	18.41	31.70	72.72	93.93	32.75
300.0	378.3	522.9	559.2	424.9	276.3	240.7	255.2	322.1	416.4	661.5	1162	951.5	723.2	846.7	1814	8440	9999.9	527.2	20.47	8.750	5.572	4.452	3.705	2.947	2.528	2.394	2.043	2.005	1.709	1.625	1.413	1.552	1.294	1.617	1.455	1.301	1.320	1.198	0.975	1.035	0.969	1.012	1.122	1.163	1.141	1.636	1.431	2.059	1.906	1.763	1.462	1.612	1.395	1.291	1.320	1.231	1.496	1.650	1.682	1.900	2.102	2.496	3.073	3.826	5.778	6.792	5.718	4.184	4.065	4.384	4.599	5.159	5.849	8.864	22.27	51.19	86.58
305.0	425.3	607.7	663.9	528.1	376.4	342.1	396.9	500.0	654.1	881.9	1292	1578	1099	810.0	840.3	2725	9999.9	5034	75.54	12.76	7.290	5.276	4.087	3.261	2.923	2.461	2.214	2.045	1.847	1.843	1.573	1.516	1.353	1.446	1.476	1.434	1.307	1.251	1.147	1.140	1.078	1.031	1.240	1.185	1.321	1.673	1.801	2.046	2.369	1.994	1.774	1.843	1.704	1.656	1.598	1.812	2.247	2.574	2.563	2.740	3.170	3.467	3.970	4.683	5.574	7.188	8.830	8.016	6.793	5.505	5.089	4.672	4.637	4.594	7.447	14.54	31.57
310.0	478.9	692.0	767.5	618.5	478.3	459.5	540.7	693.4	860.9	1102	1395	1747	1723	1126	832.0	1041	3222	7293	7290	1462	23.63	7.471	5.446	4.275	3.451	2.730	2.563	2.307	1.917	1.799	1.780	1.608	1.479	1.578	1.540	1.458	1.353	1.222	1.220	1.180	1.174	1.146	1.198	1.222	1.526	1.706	1.987	2.471	2.631	2.215	2.038	2.184	2.174	2.061	2.111	2.294	2.636	3.146	3.424	3.731	4.027	4.584	5.076	5.943	6.315	7.280	8.066	8.961	9.501	8.580	7.569	6.084	5.318	5.042	5.079	6.304	9.577
315.0	566.0	808.5	897.9	717.6	571.5	555.8	659.9	807.6	972.2	1225	1496	1708	1812	1632	1015	758.8	1133	1938	5462	9776	480.4	22.19	7.379	5.144	3.740	3.263	3.140	2.592	2.324	1.960	2.037	1.761	1.518	1.532	1.490	1.446	1.500	1.188	1.377	1.201	1.140	1.273	1.214	1.297	1.550	1.936	2.170	2.724	2.905	2.645	2.295	2.540	2.654	2.493	2.463	2.564	3.101	3.496	3.881	4.237	4.508	5.285	5.528	6.439	7.018	7.625	7.990	8.704	8.852	9.088	10.04	9.294	6.870	5.837	5.330	4.937	5.119
320.0	606.6	965.4	1033	806.9	642.0	614.3	727.1	866.7	1040	1296	1568	1761	1771	1750	1336	787.7	719.4	704.8	1533	7485	7932	372.5	12.15	6.623	4.521	3.786	3.269	2.681	2.476	2.047	1.967	1.848	1.576	1.680	1.560	1.489	1.380	1.270	1.326	1.167	1.159	1.360	1.303	1.509	1.778	2.163	2.515	3.352	3.307	2.885	2.643	2.768	2.800	2.547	2.758	2.806	3.621	3.910	4.103	4.381	4.777	5.218	5.975	6.924	6.976	7.652	8.287	8.877	8.818	8.716	9.148	10.06	9.234	7.753	5.941	5.045	4.629
325.0	678.8	1108	1252	934.5	708.8	643.4	750.9	907.6	1052	1307	1575	1778	1762	1630	1510	916.0	649.4	447.6	460.9	2278	8577	3721	55.30	9.777	5.838	4.559	3.777	2.757	2.732	2.305	1.985	1.700	1.788	1.551	1.671	1.510	1.440	1.332	1.309	1.247	1.198	1.325	1.486	1.559	1.898	2.349	3.214	3.843	3.896	3.653	2.988	3.071	3.102	2.899	2.864	3.006	3.384	4.060	3.996	4.563	4.861	5.459	5.871	6.748	7.123	7.724	8.400	8.604	8.993	8.716	8.758	8.532	8.899	9.072	7.393	5.697	4.911
330.0	756.1	1327	1598	1317	942.3	746.8	771.5	904.2	1045	1272	1541	1736	1746	1564	1373	1116	745.2	430.8	266.9	613.3	2582	5735	5496	1109	18.88	5.943	4.351	3.420	2.825	2.582	2.327	1.992	1.773	1.672	1.628	1.445	1.469	1.340	1.406	1.244	1.199	1.307	1.381	1.569	2.118	2.744	3.378	4.371	4.971	4.537	4.010	4.099	3.994	3.318	3.434	3.155	3.713	3.797	4.135	4.675	4.770	5.193	5.892	6.581	7.224	7.862	8.045	8.485	8.546	8.589	8.514	8.245	7.999	8.136	7.517	7.086	6.573
335.0	839.2	1491	1894	1746	1328	948.5	838.3	918.2	1042	1258	1515	1703	1732	1573	1322	1073	971.3	567.9	295.6	299.8	693.5	1443	4624	7721	392.2	18.16	5.955	4.408	3.265	2.974	2.351	2.193	1.926	1.794	1.571	1.620	1.459	1.513	1.461	1.357	1.164	1.291	1.566	1.881	2.191	3.129	3.657	5.195	5.662	5.514	5.095	5.746	5.401	4.750	4.231	3.558	3.796	3.908	4.364	4.574	4.863	5.306	5.816	6.437	7.108	7.867	8.191	8.392	8.415	8.044	8.670	7.926	7.978	7.608	7.092	6.705	6.718
340.0	867.7	1504	1999	1859	1460	1045	862.4	901.7	1027	1209	1444	1647	1672	1544	1296	1017	934.6	729.8	359.2	259.9	298.6	429.8	1328	6304	6334	316.2	9.848	5.533	4.097	3.310	2.807	2.349	2.014	1.923	1.612	1.722	1.438	1.486	1.490	1.368	1.288	1.194	1.492	1.962	2.372	2.952	3.718	5.011	5.756	5.697	5.678	6.323	5.800	5.208	4.716	3.908	3.799	4.264	4.602	4.387	4.786	5.154	5.508	6.165	6.714	7.502	7.497	8.027	8.378	8.455	8.441	7.829	7.636	7.361	7.146	6.320	6.063
345.0	840.7	1443	1996	1890	1467	1030	834.7	872.3	978.8	1136	1373	1535	1568	1463	1238	968.3	811.8	750.8	478.9	279.1	229.9	219.9	393.8	1953	7034	3151	48.67	7.615	5.122	3.827	2.852	2.428	2.207	1.956	1.820	1.650	1.472	1.495	1.389	1.251	1.284	1.240	1.521	1.799	2.330	2.900	3.833	5.055	5.577	5.704	5.680	6.204	5.813	5.205	4.555	3.846	3.801	4.180	4.074	4.345	4.733	4.913	5.189	5.807	6.292	6.765	7.285	7.445	7.930	7.772	8.053	7.717	7.390	7.249	6.806	6.057	5.562
350.0	755.3	1320	1840	1821	1482	1055	829.6	849.3	914.1	1067	1256	1393	1426	1347	1161	924.9	757.1	644.4	569.9	407.0	259.6	207.4	212.0	525.1	2123	4550	4384	981.1	16.85	4.744	3.473	2.765	2.450	2.045	1.733	1.555	1.544	1.453	1.395	1.286	1.201	1.257	1.476	1.597	2.078	2.769	3.457	4.581	5.204	5.448	5.494	6.172	5.866	5.370	4.564	3.758	3.791	3.884	3.918	4.012	4.375	4.762	4.777	5.613	5.905	6.177	6.777	6.805	7.181	7.331	7.372	7.105	7.030	6.746	6.221	5.969	5.528
355.0	671.8	1192	1640	1730	1455	1069	844.0	820.9	878.1	1003	1145	1269	1302	1240	1097	896.7	744.9	609.0	516.8	518.0	371.5	247.4	203.7	233.3	544.7	1113	3429	5952	366.8	17.73	4.813	3.312	2.622	2.262	1.909	1.587	1.516	1.451	1.254	1.217	1.142	1.307	1.463	1.505	1.817	2.374	2.915	3.909	4.855	4.886	5.110	5.737	5.807	5.557	4.672	3.888	3.744	3.622	3.754	3.934	4.179	4.574	4.553	5.166	5.507	5.872	5.789	6.170	6.391	6.603	6.678	6.613	6.749	6.377	6.208	5.688	5.664
360.0	633.9	1062	1498	1569	1374	1048	825.4	805.2	841.6	946.1	1068	1176	1188	1152	1017	861.7	728.3	603.5	504.2	489.4	477.7	313.1	227.8	189.8	213.7	308.6	938.8	4603	5204	308.4	9.970	4.334	3.273	2.517	2.089	1.671	1.623	1.650	1.191	1.260	1.193	1.297	1.344	1.390	1.772	2.185	2.677	3.719	4.420	4.625	4.565	5.674	5.540	5.113	4.540	3.736	3.721	3.729	3.881	3.872	3.934	4.397	4.590	4.777	5.181	5.315	5.355	5.568	5.871	6.038	6.201	6.006	6.263	6.024	5.986	5.563	5.475
365.0	558.4	968.4	1354	1467	1308	1023	812.1	779.3	829.0	910.1	1015	1095	1108	1074	969.4	827.2	717.4	608.0	516.6	466.7	496.4	420.8	271.9	205.3	164.8	149.8	264.8	1375	5376	2971	47.16	7.121	3.691	3.031	2.222	1.961	1.610	1.601	1.324	1.288	1.218	1.164	1.288	1.317	1.746	1.963	2.414	3.401	4.095	4.246	4.159	5.158	5.206	5.017	4.405	3.879	3.842	3.685	3.915	3.827	3.871	4.198	4.491	4.595	4.710	4.979	5.001	5.238	5.778	5.600	5.976	5.682	5.648	5.652	5.467	5.567	5.311
370.0	536.4	851.1	1201	1330	1241	995.4	813.9	775.2	817.3	880.5	959.9	1013	1027	992.0	911.1	796.5	708.3	622.8	545.4	488.7	466.3	474.7	393.6	265.4	195.9	150.1	143.6	367.7	1575	3685	3874	991.7	16.98	4.316	2.838	2.194	1.788	1.683	1.406	1.298	1.247	1.237	1.287	1.373	1.602	1.915	2.361	3.155	3.566	3.712	3.914	4.682	4.997	4.719	4.234	3.763	3.729	3.761	3.668	3.780	3.895	4.221	4.295	4.412	4.411	4.524	4.708	4.785	5.071	5.100	5.496	5.473	5.301	5.455	5.079	5.335	5.056
375.0	485.1	772.9	1070	1225	1150	968.9	811.2	775.9	798.5	849.7	917.8	948.3	958.3	931.0	860.5	765.8	692.6	631.8	567.1	519.6	475.9	455.8	471.6	385.4	254.6	195.9	160.9	179.7	419.7	903.5	2698	5143	328.4	19.92	4.072	2.779	2.195	1.845	1.595	1.386	1.308	1.244	1.367	1.396	1.498	1.877	2.136	2.688	3.216	3.291	3.526	4.144	4.745	4.375	3.874	3.640	3.711	3.500	3.600	3.757	3.841	3.929	4.226	4.224	4.612	4.343	4.557	4.613	5.021	5.031	5.008	5.085	4.967	5.094	4.776	5.330	4.954
380.0	438.1	721.6	1033	1140	1097	951.1	804.6	769.2	785.0	824.6	881.6	905.0	923.5	886.5	821.7	744.5	681.8	633.3	580.5	538.4	501.0	461.3	461.7	465.6	333.5	241.0	193.5	167.2	188.6	271.0	745.6	3601	4369	286.8	11.13	3.719	2.875	2.080	1.786	1.585	1.374	1.353	1.302	1.327	1.502	1.938	2.001	2.686	3.002	3.289	3.328	4.122	4.401	4.268	3.994	3.534	3.887	3.523	3.666	4.121	3.855	3.700	4.092	4.121	4.576	4.472	4.195	4.354	4.673	4.803	5.095	5.048	4.810	4.950	4.624	4.905	4.745
385.0	436.2	677.4	947.9	1067	1057	933.5	805.0	778.8	772.8	809.8	859.3	872.5	898.8	859.5	797.7	723.8	675.8	638.1	595.8	556.9	522.2	489.4	462.7	473.8	428.3	300.5	238.2	199.0	164.7	153.6	241.0	1044	3914	2554	218.2	6.615	3.624	2.366	1.930	1.669	1.375	1.277	1.318	1.467	1.518	1.800	1.946	2.433	2.662	2.932	3.090	3.931	4.350	4.030	3.799	3.669	3.729	3.661	3.375	3.855	3.701	3.782	3.981	4.080	4.218	4.222	4.066	4.278	4.528	4.638	4.702	4.801	4.696	4.957	4.684	4.448	4.605
390.0	412.5	636.2	889.7	1002	1000	913.7	816.9	790.3	782.3	805.9	850.7	867.0	888.7	851.9	792.5	718.5	669.8	639.7	606.6	580.0	557.2	530.2	503.1	483.0	480.4	424.2	325.2	259.5	209.1	169.6	158.9	311.2	1098	2549	2879	871.9	16.69	4.457	2.655	1.977	1.556	1.430	1.409	1.403	1.470	1.720	1.969	2.359	2.710	2.756	3.030	3.752	4.056	3.935	3.801	3.613	3.815	3.701	3.661	3.900	3.765	3.743	3.980	3.911	4.085	4.074	4.233	4.194	4.376	4.551	4.606	4.741	4.800	4.754	4.592	4.557	4.754
395.0	402.7	609.6	819.5	963.8	985.4	914.9	845.8	825.0	814.7	859.4	891.3	920.2	928.6	904.7	828.8	750.6	678.9	644.6	616.4	606.2	593.0	580.9	567.1	549.5	524.1	517.2	452.9	365.4	295.1	241.7	199.1	189.0	320.9	630.1	1634	3728	1308	22.57	4.651	2.688	1.917	1.573	1.507	1.517	1.427	1.780	1.892	2.310	2.656	2.509	2.907	3.813	3.855	3.825	3.629	3.427	3.928	3.733	3.706	3.783	3.827	3.824	3.945	4.112	4.098	4.045	4.342	4.231	4.433	4.595	4.707	4.648	4.884	4.934	4.487	4.797	4.713
400.0	398.0	607.9	801.1	932.6	969.2	931.5	871.3	849.0	865.0	926.5	983.7	1014	1047	988.9	899.9	790.5	704.7	657.4	634.3	630.8	629.9	632.4	627.5	622.4	598.1	582.0	579.3	493.5	390.9	324.9	264.9	209.0	181.5	216.4	453.1	2197	3567	267.1	16.64	4.089	2.428	1.873	1.657	1.726	1.551	1.808	1.809	2.422	2.796	2.770	2.985	3.669	4.108	4.070	3.905	3.946	3.956	4.002	4.133	4.038	3.831	3.905	3.930	4.128	4.275	4.174	4.396	4.705	4.418	4.722	4.678	4.883	4.876	4.856	4.624	5.015	5.061
405.0	388.0	571.4	793.1	914.5	969.8	939.0	902.6	885.9	937.4	1005	1095	1139	1159	1105	984.6	846.6	729.0	674.2	647.3	650.8	659.1	680.8	691.7	697.7	684.4	662.2	654.5	625.4	503.5	408.7	339.2	262.2	191.4	155.1	181.9	617.7	2515	2228	226.4	9.055	3.300	2.275	1.926	1.789	1.662	1.829	1.919	2.367	2.791	2.566	2.990	3.561	3.936	3.986	3.842	3.981	4.283	4.173	4.141	4.289	4.172	3.905	4.266	4.209	4.396	4.456	4.528	4.865	4.803	4.721	5.160	5.189	5.099	4.904	5.154	5.112	4.877
410.0	381.7	556.0	779.4	890.2	940.2	948.1	933.4	931.9	981.8	1071	1180	1247	1254	1189	1057	889.8	744.6	673.2	647.4	660.3	680.5	709.7	737.5	758.8	756.0	740.7	714.6	688.9	621.0	509.5	408.9	316.8	229.9	172.7	147.7	221.5	694.7	1724	2258	851.2	16.23	3.076	2.391	1.935	1.740	1.889	2.000	2.389	2.590	2.723	2.885	3.598	4.031	3.911	4.185	4.119	4.354	4.226	4.389	4.358	4.408	4.176	4.435	4.403	4.525	4.667	4.813	4.925	5.124	4.928	5.152	5.216	5.171	5.282	5.143	4.945	4.847
415.0	366.9	532.5	732.3	857.4	895.3	926.8	942.2	939.7	983.4	1071	1177	1244	1243	1170	1031	869.4	720.7	647.1	627.8	638.0	664.5	702.7	735.4	764.4	765.8	755.6	721.5	680.6	640.8	576.3	447.8	338.9	251.2	187.4	147.9	138.7	219.1	427.5	1028	2681	1248	21.94	3.147	2.120	2.001	2.031	1.980	2.487	2.615	2.746	2.754	3.600	3.936	4.213	4.226	3.902	4.374	4.019	4.260	4.404	4.326	4.386	4.438	4.492	4.699	4.919	4.687	4.918	5.053	4.972	4.933	5.121	5.271	5.043	4.905	4.738	4.812
420.0	361.4	526.7	699.1	824.9	883.3	911.0	921.5	936.2	967.6	1036	1135	1180	1192	1122	992.0	829.7	686.3	615.8	598.5	614.7	638.7	677.0	715.3	742.2	752.1	747.9	716.0	667.6	618.2	576.1	475.1	349.9	256.3	192.0	149.8	121.4	114.3	135.7	262.8	1358	2721	255.8	14.78	2.719	2.206	2.186	2.100	2.344	2.662	2.747	2.766	3.547	3.847	3.943	4.178	4.013	4.184	3.940	4.326	4.442	4.174	4.135	4.494	4.582	4.629	4.732	4.616	4.754	4.908	5.030	5.131	4.960	4.825	4.752	4.720	4.580	4.333
425.0	363.9	491.6	688.3	810.9	868.9	906.4	923.7	931.3	967.5	1020	1107	1155	1150	1091	964.6	806.0	665.2	593.8	575.8	592.9	613.2	649.7	692.6	721.3	730.5	733.5	708.9	658.5	602.6	557.8	499.7	372.7	266.6	200.4	156.7	124.5	94.85	72.26	83.34	344.5	1618	2069	225.0	8.043	2.680	2.320	2.240	2.366	2.431	2.870	2.724	3.419	3.813	3.627	3.717	4.078	4.142	4.029	4.392	4.290	4.483	4.071	4.270	4.622	4.709	4.601	4.553	4.549	4.759	4.542	4.868	4.919	4.814	4.786	4.634	4.511	4.638
430.0	454.7	493.5	662.1	780.8	866.9	891.1	937.5	945.3	984.1	1029	1119	1163	1151	1078	954.5	788.2	647.9	575.4	553.8	568.7	593.7	630.9	673.6	709.0	724.1	724.1	705.7	666.4	613.3	553.2	495.5	415.0	302.1	219.5	174.2	138.7	102.1	68.04	48.52	94.99	404.7	1218	1836	860.6	16.07	2.982	2.403	2.565	2.516	2.654	2.698	3.311	3.724	3.711	3.879	3.897	4.346	4.445	4.421	4.219	4.323	4.325	4.255	4.581	4.530	4.430	4.426	4.396	4.590	4.586	4.715	4.796	4.449	4.705	4.540	4.474	4.489
435.0	727.6	510.1	645.7	751.0	842.0	904.1	944.5	971.9	991.7	1035	1110	1167	1136	1052	925.8	771.8	628.9	557.3	536.1	542.9	563.9	601.8	645.7	682.8	706.4	706.5	690.8	658.5	611.3	551.8	484.4	411.5	339.2	246.7	190.8	151.7	114.7	74.61	47.60	43.28	104.8	283.7	732.0	2193	1211	22.08	2.971	2.780	2.567	2.751	2.729	3.415	3.627	3.684	3.950	4.025	4.493	4.446	4.468	4.496	4.376	4.263	4.140	4.536	4.325	4.403	4.321	4.495	4.801	4.661	4.649	4.633	4.409	4.537	4.554	4.414	4.173
440.0	960.5	603.9	622.4	743.9	816.0	893.5	936.1	967.2	981.0	1026	1078	1124	1089	1003	887.7	736.7	600.9	533.0	511.1	516.3	533.6	569.1	610.8	646.7	673.7	675.0	661.1	634.3	588.4	534.8	469.4	394.7	338.8	267.6	198.1	157.8	119.4	80.50	51.02	35.09	40.31	75.57	178.3	1047	2391	862.3	14.74	3.140	2.881	2.726	2.616	3.249	3.600	3.610	3.961	3.922	4.429	4.593	4.434	4.438	4.292	4.054	4.265	4.273	4.113	4.234	4.098	4.323	4.505	4.338	4.418	4.185	4.324	4.258	4.515	3.913	4.049
445.0	891.6	874.0	594.4	724.9	795.4	868.4	922.7	957.1	947.8	978.9	1027	1044	1008	941.6	827.8	686.5	565.0	500.4	484.9	485.2	501.4	531.7	566.8	602.1	626.8	625.8	619.1	597.1	553.0	510.0	446.9	373.8	316.8	270.6	206.9	158.5	119.8	83.10	53.84	36.35	28.46	31.11	50.55	261.2	1380	2045	197.0	9.554	3.385	2.602	2.768	3.383	3.580	3.526	3.808	3.912	4.293	4.576	4.488	4.551	4.227	4.355	4.319	4.237	4.233	4.012	4.073	3.866	4.311	4.228	4.182	4.111	4.379	4.151	4.253	4.047	3.832
450.0	561.9	1299	775.2	685.9	759.8	829.3	898.6	919.8	895.8	893.9	922.6	939.5	901.8	840.5	735.8	618.8	515.1	461.6	442.2	440.8	450.4	472.7	502.0	535.9	555.9	557.9	552.0	532.6	500.7	462.8	411.5	345.8	285.2	246.1	213.3	163.0	118.7	83.92	57.44	39.96	29.22	23.74	23.52	67.95	340.1	1098	1603	786.6	14.38	3.172	2.761	3.162	3.489	3.536	3.835	3.780	4.246	4.329	4.319	4.098	4.178	4.166	3.943	3.916	3.716	3.774	3.831	3.883	3.966	3.882	3.741	3.833	3.841	3.670	3.741	3.722	3.341
455.0	312.6	1150	1472	691.4	707.9	787.9	842.4	860.5	838.9	820.5	830.1	832.8	806.1	737.0	651.3	549.4	462.6	418.8	399.5	397.9	398.4	414.0	440.1	468.1	491.0	490.7	485.4	472.7	449.2	418.5	372.3	319.2	263.0	218.5	194.8	171.0	123.8	83.76	60.87	43.27	32.39	24.75	19.79	26.42	84.35	252.9	594.5	1791	980.4	17.75	3.022	3.328	3.471	3.369	3.452	3.753	3.954	4.048	4.229	3.848	3.959	3.967	3.562	3.731	3.500	3.504	3.506	3.551	3.651	3.413	3.543	3.299	3.515	3.659	3.458	3.435	3.241
460.0	251.8	738.9	1973	849.5	662.1	745.0	811.6	818.5	790.9	765.1	772.9	770.7	736.4	671.9	596.6	507.9	426.4	382.1	370.7	362.6	363.5	373.9	398.4	422.3	440.8	447.7	443.6	434.4	413.6	387.4	346.2	299.0	246.8	205.1	179.5	164.2	133.4	87.22	61.68	45.58	34.64	26.29	20.25	17.66	28.27	64.06	142.4	800.5	1876	677.0	12.72	3.549	3.406	3.344	3.357	3.678	3.875	3.944	4.058	3.889	3.685	3.531	3.415	3.603	3.464	3.156	3.373	3.366	3.396	3.351	3.457	3.041	3.138	3.359	3.135	3.195	3.129
465.0	229.0	456.8	1863	1469	651.2	694.8	761.1	774.3	742.5	718.9	718.4	709.4	684.6	624.3	550.5	463.3	394.9	354.3	341.0	335.1	334.1	345.3	363.9	386.0	397.8	405.6	407.3	399.9	382.8	354.7	322.8	280.0	233.3	195.7	166.7	148.7	133.5	93.70	62.85	46.38	36.16	27.45	21.79	17.28	16.46	22.52	38.69	196.1	1062	1551	160.6	9.500	3.365	3.312	3.508	3.264	3.766	3.879	3.736	3.707	3.522	3.341	3.471	3.358	3.326	2.975	3.038	3.331	2.983	3.020	3.168	3.085	2.868	3.263	2.659	2.775	2.937
470.0	220.9	330.2	1106	2254	939.9	634.7	686.0	702.5	665.8	643.7	640.0	634.3	599.1	552.1	484.5	411.2	348.8	310.9	300.2	293.2	290.8	299.1	313.9	334.0	345.4	350.8	352.4	347.6	332.7	314.3	286.5	251.4	212.2	179.3	152.3	131.2	116.6	97.57	68.57	48.48	36.90	29.05	23.26	18.31	15.20	14.30	16.18	50.05	260.6	809.9	1138	610.9	14.30	3.608	3.357	3.224	3.520	3.519	3.414	3.390	3.120	3.211	2.924	2.953	3.135	2.815	2.659	2.877	2.835	2.803	2.803	2.628	2.749	2.782	2.564	2.554	2.658
475.0	205.1	278.7	548.8	1927	1979	620.4	614.7	623.5	586.8	562.2	556.7	548.5	513.2	473.4	412.2	354.4	305.0	273.4	260.4	253.8	250.5	254.1	265.5	280.5	291.9	295.9	294.9	291.9	283.0	272.2	247.2	218.0	188.7	158.8	137.3	117.7	99.68	87.61	74.47	52.27	37.34	29.80	24.11	19.34	16.01	13.32	11.72	18.08	63.82	185.6	393.8	1198	689.5	19.15	3.602	3.096	3.273	3.346	3.123	3.019	2.989	2.824	2.860	2.847	2.878	2.489	2.279	2.444	2.474	2.472	2.645	2.611	2.562	2.329	2.195	2.199	2.390
480.0	209.2	264.8	377.7	1174	2664	864.3	568.8	564.7	544.4	513.1	504.0	490.4	461.0	419.9	368.7	316.7	273.0	248.2	235.6	230.3	222.8	225.2	235.2	247.7	259.2	263.2	261.4	257.8	252.0	244.0	224.4	197.9	173.0	146.7	126.3	107.6	91.67	77.05	71.20	58.26	39.43	30.16	24.62	20.43	16.98	14.15	11.23	11.36	20.01	46.16	94.27	509.8	1310	203.4	13.05	3.103	3.072	3.052	3.043	2.865	2.665	2.796	2.674	2.484	2.528	2.381	2.242	2.511	2.273	2.435	2.427	2.285	2.254	2.207	2.151	2.074	2.002
485.0	186.5	263.4	329.6	626.8	2545	1569	532.7	528.3	501.2	472.5	460.7	453.1	421.0	378.8	337.8	286.7	251.5	224.4	214.6	207.8	201.6	203.2	212.5	223.5	230.8	236.5	235.4	231.5	228.6	220.8	205.2	181.7	159.3	136.7	118.5	101.8	85.69	71.67	63.22	60.10	43.23	31.24	24.62	20.95	16.95	14.53	11.93	10.52	10.59	15.41	25.69	124.8	736.8	1198	177.4	6.954	3.152	2.998	3.126	2.613	2.627	2.441	2.417	2.504	2.305	2.313	2.319	2.341	2.110	2.154	2.218	2.097	2.038	2.130	2.053	2.028	1.988
490.0	150.0	260.3	304.3	406.8	1436	2579	833.0	483.4	448.9	427.9	411.9	403.2	368.1	331.7	294.2	251.7	221.8	199.4	192.2	185.0	178.4	179.5	186.1	194.9	203.1	205.6	205.8	202.9	201.3	193.1	183.1	162.2	142.7	123.9	108.2	93.81	79.53	66.09	55.79	53.11	47.65	35.19	26.09	21.55	17.82	15.10	12.62	10.93	9.242	9.180	10.70	32.26	181.1	598.0	983.8	479.9	15.03	3.077	2.946	2.658	2.599	2.296	2.347	2.261	2.171	2.075	2.077	2.133	2.104	2.009	2.046	2.017	1.861	1.966	1.878	1.873	1.777
495.0	133.6	217.0	306.4	322.1	619.6	2275	1924	457.2	394.8	376.0	363.2	354.3	328.4	291.4	259.3	222.3	192.5	174.6	168.4	161.2	156.6	154.8	161.3	167.6	175.7	176.7	178.9	177.2	173.2	166.5	158.3	142.7	127.7	109.9	97.86	84.55	71.83	61.38	51.23	45.44	43.18	40.02	28.93	21.95	18.18	15.81	13.52	11.46	9.886	8.298	7.478	11.64	44.39	137.3	365.7	1108	699.0	19.59	2.975	2.470	2.445	2.262	2.113	2.013	2.104	1.891	1.935	1.874	1.930	1.793	1.770	1.905	1.645	1.817	1.742	1.543	1.587
500.0	127.5	188.6	293.2	297.6	374.4	1363	2801	648.5	361.0	347.0	327.9	319.2	290.9	262.4	234.7	197.5	174.3	158.2	152.7	143.9	140.0	139.7	144.8	150.1	154.9	157.3	159.5	154.9	154.4	149.6	142.4	128.7	114.6	101.9	90.25	78.02	67.50	56.56	48.77	42.16	38.03	39.13	32.03	23.50	18.63	15.93	13.46	11.59	9.953	8.212	6.997	7.385	14.32	34.24	87.42	479.4	1255	221.2	13.01	2.406	2.584	2.146	2.072	1.962	2.071	1.784	1.831	1.744	1.938	1.768	1.696	1.660	1.503	1.529	1.655	1.524	1.565
505.0	122.0	158.9	271.3	279.5	297.6	666.5	2836	1348	333.0	310.5	296.6	284.4	266.2	236.9	209.1	177.9	157.2	142.6	137.5	130.4	125.3	125.5	131.5	133.2	136.7	139.7	139.9	138.8	138.5	134.7	129.6	115.8	105.7	93.28	81.09	72.26	62.07	52.87	46.26	38.97	33.89	33.43	32.65	25.62	19.00	15.53	13.78	11.45	10.00	8.604	7.107	6.472	7.328	11.48	23.01	117.1	675.7	1096	185.1	6.020	2.588	2.083	1.979	1.923	1.873	1.837	1.727	1.600	1.599	1.427	1.457	1.595	1.348	1.414	1.289	1.494	1.573
510.0	107.1	140.8	222.1	280.8	257.5	356.3	1593	2574	566.1	271.6	262.0	250.6	232.0	203.7	178.4	153.5	136.7	123.4	117.1	112.0	107.2	107.7	110.6	113.5	115.0	118.4	118.9	119.2	117.2	115.8	110.6	100.7	90.69	80.88	70.97	63.57	55.51	47.34	41.33	34.95	30.58	28.22	28.73	27.43	20.87	15.94	13.63	11.80	10.03	8.618	7.501	6.475	5.749	6.405	8.574	29.27	164.8	540.4	819.5	368.4	13.72	2.251	1.978	1.811	1.726	1.652	1.539	1.540	1.540	1.429	1.313	1.457	1.437	1.449	1.340	1.435	1.379
515.0	88.80	118.0	166.4	246.5	251.8	262.0	586.5	2487	1653	256.6	226.7	217.2	198.0	173.4	150.3	129.8	115.4	103.8	99.97	95.11	90.58	88.99	93.67	96.12	95.78	97.90	100.3	98.82	98.87	96.72	93.22	84.56	76.01	69.82	61.06	55.41	48.23	41.17	36.99	31.92	27.47	24.84	23.08	24.57	23.59	17.05	13.12	11.26	9.667	8.461	7.385	6.728	5.669	5.049	5.260	9.687	39.59	123.6	284.8	841.5	232.8	17.83	1.962	1.664	1.609	1.504	1.404	1.412	1.406	1.303	1.272	1.253	1.234	1.286	1.256	1.238	1.214
520.0	78.75	114.4	144.1	211.2	251.3	216.4	297.4	1494	2749	414.3	200.7	192.3	176.4	150.4	133.0	115.1	102.2	93.59	88.67	84.37	79.21	77.58	80.32	83.85	84.22	85.27	85.54	84.97	85.42	84.42	81.15	74.55	67.73	60.83	55.52	48.60	42.60	37.08	33.46	29.87	25.24	22.54	20.44	20.93	23.18	18.57	13.66	11.28	9.481	8.335	7.074	6.438	6.018	5.133	4.550	5.101	11.75	30.02	67.53	359.8	843.6	214.4	10.69	1.764	1.574	1.420	1.270	1.291	1.165	1.147	1.304	1.246	1.094	1.163	1.248	1.036	1.085
525.0	78.54	101.3	126.2	172.0	247.3	195.9	214.2	647.4	3043	1076	187.6	173.9	155.9	137.5	119.8	102.5	92.18	82.45	79.07	74.63	69.98	68.97	71.30	74.06	74.56	75.54	75.78	75.15	76.90	75.97	71.96	66.64	59.66	54.86	49.21	43.29	39.86	34.92	30.19	26.76	23.34	20.98	19.08	18.06	19.74	19.79	15.03	10.97	8.957	7.917	6.898	6.106	6.027	4.827	4.243	4.185	5.437	9.317	17.34	87.11	456.2	780.7	168.7	4.700	1.602	1.347	1.324	1.288	1.180	1.266	1.188	1.196	1.014	1.162	1.068	0.909	1.042
530.0	79.59	92.67	108.4	138.1	206.7	199.8	175.1	280.0	1705	2434	387.1	147.4	132.7	117.9	101.3	87.64	78.98	71.05	67.17	63.64	60.02	59.88	60.01	62.35	63.04	63.53	64.90	64.43	64.77	63.66	60.81	56.71	51.19	46.58	42.74	37.80	34.48	30.49	26.67	24.18	21.31	19.05	17.13	16.13	15.48	17.03	16.55	11.78	8.782	7.501	6.629	5.835	5.374	5.038	4.453	3.739	3.874	4.509	6.163	21.39	110.5	369.7	581.2	266.6	12.87	1.416	1.302	1.176	1.191	1.152	1.133	1.021	0.977	1.000	0.948	0.956	0.966
535.0	70.74	87.40	96.49	107.3	149.7	214.8	155.5	174.1	540.8	2608	1420	139.6	114.0	99.97	87.15	73.57	65.34	61.25	57.30	54.09	50.96	51.04	51.01	52.10	51.86	53.84	53.25	53.86	53.52	53.70	51.50	48.49	43.13	39.65	35.72	32.65	29.34	25.90	23.85	21.41	18.72	17.13	15.15	13.78	13.28	13.49	14.39	13.15	9.281	7.265	6.181	5.675	5.095	4.793	4.638	3.874	3.259	3.414	3.518	6.667	26.26	84.28	195.9	579.1	232.3	16.24	1.426	1.055	1.125	0.926	1.010	0.998	0.954	0.927	0.835	0.808	0.907
540.0	69.10	73.66	86.99	99.60	116.2	188.8	153.5	136.6	225.1	1500	2651	199.3	101.1	87.80	75.40	65.29	57.68	54.90	49.56	46.60	44.95	44.29	44.42	44.49	45.47	46.01	45.69	44.84	46.89	46.32	43.81	42.49	38.20	34.19	31.42	28.64	25.99	23.18	20.92	18.91	16.17	15.56	13.95	12.97	11.78	11.34	11.65	13.04	10.23	7.331	5.751	5.293	4.623	4.482	4.153	3.928	3.414	2.938	2.673	3.204	7.561	20.42	46.20	243.3	590.7	198.0	9.157	1.118	1.114	1.031	0.921	0.887	0.853	0.850	0.802	0.831	0.796
545.0	59.49	62.36	79.35	84.40	94.76	150.3	166.1	119.5	134.3	578.5	3018	744.8	92.30	78.64	68.05	57.72	50.88	47.76	42.98	40.70	38.26	39.13	39.25	38.46	39.91	40.06	39.62	39.58	39.72	39.52	37.77	35.93	34.09	30.56	27.32	25.12	23.22	20.66	18.44	16.50	14.72	13.78	12.59	11.34	10.56	9.863	9.476	10.94	10.47	7.437	5.576	4.903	4.220	4.094	3.696	3.666	3.558	2.698	2.457	2.417	3.209	6.076	11.73	58.60	304.3	552.2	146.3	3.604	1.156	1.004	0.951	0.844	0.837	0.880	0.807	0.750	0.824
550.0	57.88	67.13	67.85	74.49	81.23	108.4	159.0	115.2	101.8	207.9	1581	2037	141.7	65.29	55.76	47.83	42.05	38.66	36.57	34.16	31.78	32.17	32.17	31.77	32.93	32.58	32.46	33.08	33.05	32.90	32.22	29.34	27.47	25.17	23.23	20.71	19.59	17.77	15.35	13.94	12.96	11.81	10.98	9.714	9.092	8.416	7.993	8.289	9.063	7.817	5.792	4.557	3.639	3.531	3.232	3.010	3.252	2.948	2.334	2.109	2.190	2.652	3.956	14.33	73.28	246.4	390.5	134.7	12.36	1.128	0.940	0.845	0.791	0.793	0.756	0.726	0.777
555.0	58.80	62.02	69.19	65.44	68.97	76.51	122.7	130.4	82.62	102.4	450.8	2327	934.4	60.08	45.80	38.03	34.04	31.93	29.16	27.66	25.88	25.85	26.25	25.08	25.93	25.53	25.86	25.94	25.79	25.53	25.46	23.48	21.76	19.75	19.01	17.44	15.88	14.07	12.60	11.76	10.63	9.880	8.998	7.932	7.626	7.338	6.650	6.269	6.647	7.062	6.239	4.508	3.399	2.899	2.908	2.472	2.556	2.722	2.513	1.966	1.818	1.820	2.096	4.344	17.37	56.01	123.1	345.1	216.8	16.03	1.100	0.892	0.677	0.717	0.704	0.712	0.815
560.0	54.23	59.02	66.70	64.29	61.01	62.60	88.15	137.8	76.85	75.21	154.6	1291	2028	110.7	38.11	32.07	29.40	26.49	24.60	23.08	21.67	21.13	21.44	21.66	21.99	21.04	22.20	21.65	21.34	21.43	21.82	20.04	18.56	16.60	16.33	14.26	13.37	12.28	10.77	9.899	9.292	8.383	7.925	6.809	6.840	6.440	5.624	5.336	5.085	5.699	5.776	4.717	3.184	2.716	2.518	2.391	2.224	2.319	2.551	2.042	1.630	1.523	1.662	1.994	4.838	13.52	28.77	133.3	361.2	174.4	9.274	0.931	0.714	0.721	0.675	0.696	0.702
565.0	55.53	58.32	64.04	56.25	58.41	53.34	66.32	124.3	88.14	64.32	83.71	455.9	2434	456.6	34.95	27.49	25.31	22.37	20.32	19.32	18.44	18.18	17.99	18.47	18.30	17.33	18.20	18.20	17.85	17.95	17.79	16.85	15.87	14.09	13.73	11.92	11.20	10.54	9.475	8.471	7.791	7.443	6.667	5.988	5.852	5.490	4.874	4.678	4.137	4.304	4.951	5.090	3.424	2.655	2.290	1.990	1.958	1.978	2.083	2.127	1.721	1.420	1.397	1.481	2.037	3.889	7.430	31.76	159.7	333.5	115.6	3.826	0.788	0.734	0.636	0.702	0.653
570.0	55.81	66.60	60.93	55.13	49.04	46.21	49.63	85.97	108.6	61.58	61.40	145.7	1282	1472	79.67	23.61	20.50	18.70	16.46	15.86	15.11	14.65	14.42	14.64	14.33	14.47	14.88	14.57	14.82	14.46	14.10	13.38	12.81	11.63	10.79	9.890	8.972	8.259	7.886	7.300	6.443	5.999	5.606	5.188	4.865	4.443	4.355	4.042	3.561	3.254	3.588	4.173	3.589	2.644	2.147	1.897	1.734	1.660	1.681	1.726	1.921	1.499	1.304	1.235	1.343	1.778	2.533	7.976	37.87	129.3	215.7	123.9	12.47	0.905	0.652	0.669	0.614
575.0	57.44	67.72	63.69	53.08	42.09	42.08	41.85	54.25	108.3	75.00	53.75	70.55	354.5	1702	632.7	21.95	16.92	14.66	13.94	12.65	11.69	11.85	11.87	11.54	11.56	11.32	12.06	11.39	12.17	11.40	11.32	10.45	9.566	9.447	8.446	7.578	7.259	6.760	6.578	5.778	5.044	5.153	4.708	4.355	4.213	3.654	3.737	3.506	3.030	2.822	2.542	2.973	3.251	2.735	2.166	1.645	1.741	1.607	1.457	1.427	1.662	1.587	1.351	1.200	1.185	1.159	1.241	2.656	9.267	29.63	60.27	177.9	170.2	17.24	0.823	0.682	0.587
580.0	59.18	62.94	60.02	50.20	38.26	36.04	36.31	44.28	90.09	94.95	55.09	54.62	114.8	931.5	1404	54.18	15.25	12.98	12.02	11.31	10.24	10.06	9.886	9.637	10.12	10.06	9.824	9.831	9.567	9.714	9.760	8.702	8.592	7.875	6.901	6.686	6.027	5.622	5.609	4.911	4.437	4.181	3.902	3.794	3.640	3.316	3.037	2.919	2.496	2.480	2.137	2.110	2.744	2.838	2.411	1.610	1.374	1.341	1.436	1.182	1.422	1.432	1.612	1.148	0.993	1.092	0.965	1.443	2.847	7.335	14.25	60.05	202.2	132.1	9.450	0.752	0.618
585.0	57.94	66.79	60.25	52.06	39.27	32.82	33.74	38.43	66.79	107.9	60.85	51.71	57.46	317.5	1660	262.0	12.94	11.72	10.82	9.941	9.116	8.491	8.841	8.756	8.472	8.269	8.172	8.524	8.138	8.496	8.363	7.557	7.258	6.649	6.037	5.530	5.262	4.925	4.725	4.111	3.838	3.454	3.420	3.221	3.025	3.210	2.914	2.545	2.309	2.069	1.871	1.862	2.042	2.645	2.291	1.735	1.409	1.322	1.178	1.183	1.152	1.100	1.449	1.249	0.979	0.948	1.165	1.068	1.385	2.299	3.816	14.26	75.63	191.6	91.86	4.694	0.664
590.0	56.50	63.73	61.44	46.56	36.40	30.60	31.97	35.09	48.15	93.53	79.90	52.54	46.92	99.79	852.6	942.5	42.95	10.46	9.043	8.153	7.512	7.389	6.960	7.415	7.031	7.062	6.727	7.009	6.792	6.692	6.759	6.140	5.904	5.263	4.911	4.715	4.404	4.181	3.730	3.513	3.260	2.950	2.940	2.691	2.608	2.611	2.435	2.261	1.977	1.786	1.586	1.569	1.536	1.921	2.174	1.867	1.410	1.212	1.137	1.068	0.956	1.031	1.201	1.306	1.212	1.055	1.081	0.975	1.015	1.244	1.506	3.793	17.76	65.07	127.4	85.19	13.44
595.0	53.28	60.01	59.87	42.77	38.30	27.26	30.74	34.03	41.47	66.14	99.49	57.49	46.11	46.89	228.0	1086	340.4	10.46	7.648	6.777	6.353	5.887	5.760	5.923	5.691	5.631	5.524	5.455	5.307	5.349	5.707	5.000	4.897	4.167	4.051	3.733	3.515	3.313	3.187	2.898	2.557	2.461	2.357	2.259	2.175	2.033	1.958	1.939	1.768	1.525	1.314	1.391	1.373	1.336	1.716	1.795	1.526	1.237	0.956	1.010	0.943	0.897	1.042	1.057	1.227	1.181	1.071	0.910	0.908	0.976	0.973	1.431	4.512	15.01	32.41	91.93	114.7
600.0	55.13	60.11	55.75	48.29	38.51	27.82	28.08	34.09	40.56	54.19	103.7	71.99	49.02	37.40	71.00	610.1	738.9	25.84	7.201	6.314	5.645	5.241	5.211	5.076	5.035	4.801	4.532	4.610	4.479	4.825	4.608	4.143	4.022	3.591	3.489	3.072	3.261	2.964	2.695	2.459	2.457	2.217	2.088	2.054	1.914	1.844	1.742	1.621	1.614	1.379	1.233	1.249	1.215	1.080	1.290	1.682	1.570	1.220	1.068	1.021	0.890	0.869	0.833	0.873	1.157	1.225	1.039	1.020	0.957	0.824	0.805	0.832	1.536	3.929	7.794	27.71	107.8
605.0	51.82	58.17	56.36	45.68	35.97	32.02	29.62	35.72	44.06	57.27	94.16	94.55	57.33	42.18	40.11	208.8	989.7	81.12	6.523	5.869	5.318	4.530	4.375	4.153	4.133	4.042	3.987	3.982	3.915	3.802	4.024	3.637	3.442	3.022	2.963	2.833	2.822	2.634	2.270	2.277	2.079	1.971	1.895	1.959	1.668	1.689	1.516	1.467	1.306	1.207	1.141	1.161	0.949	0.944	1.015	1.445	1.478	1.467	1.061	0.953	0.839	0.897	0.871	0.934	0.938	1.139	1.194	0.994	0.883	0.836	0.820	0.677	0.848	1.550	2.285	6.844	35.97
610.0	57.44	62.09	57.99	48.84	34.06	35.11	35.65	42.71	51.90	65.58	88.76	119.3	80.25	55.25	43.22	72.29	556.0	567.5	25.80	5.067	4.451	3.888	3.575	3.576	3.612	3.378	3.447	3.255	3.099	3.416	3.211	3.046	2.969	2.656	2.542	2.323	2.213	2.151	2.052	1.920	1.809	1.683	1.587	1.513	1.415	1.379	1.281	1.280	1.184	1.031	0.969	0.996	0.885	0.813	0.931	1.087	1.240	1.373	1.187	0.934	0.862	0.933	0.933	0.936	0.937	1.075	1.207	1.177	1.027	0.890	0.891	0.767	0.808	0.983	1.064	2.120	8.640
615.0	58.97	63.64	55.51	47.39	35.51	34.24	37.21	45.34	56.44	70.01	83.82	116.4	102.1	61.40	46.08	40.92	163.8	708.6	197.8	5.089	3.594	3.346	3.596	3.159	3.051	2.945	3.064	2.578	2.733	2.854	2.625	2.617	2.525	2.244	2.014	2.119	1.849	1.892	1.719	1.562	1.448	1.436	1.314	1.299	1.230	1.257	1.138	1.108	1.035	0.915	0.832	0.844	0.828	0.786	0.809	0.834	0.908	1.157	1.089	1.022	0.911	0.909	0.959	0.938	0.876	0.939	0.961	1.101	1.316	0.906	0.883	0.831	0.766	0.773	0.836	1.062	2.475
620.0	55.31	57.09	56.64	47.30	34.38	36.24	36.63	44.16	53.97	68.46	78.11	101.9	111.2	64.57	46.08	34.39	58.16	425.9	503.8	11.53	3.646	3.126	3.320	2.828	2.708	2.350	2.520	2.503	2.362	2.507	2.344	2.286	2.020	1.892	1.905	1.757	1.731	1.582	1.419	1.248	1.234	1.220	1.154	1.031	1.169	1.041	0.960	1.013	0.941	0.846	0.789	0.836	0.769	0.727	0.745	0.725	0.826	0.991	1.058	1.082	0.898	0.842	0.815	0.892	0.912	0.942	0.955	0.999	1.109	0.970	0.923	0.811	0.691	0.729	0.734	0.801	1.065
625.0	53.69	59.65	60.03	46.68	36.55	36.70	38.21	45.77	53.82	64.78	75.90	90.02	110.1	69.55	46.55	32.60	34.23	158.6	684.3	53.62	3.452	2.985	2.638	2.482	2.421	2.145	2.458	2.240	2.207	2.233	2.201	1.812	1.697	1.771	1.683	1.550	1.492	1.284	1.354	1.187	1.205	1.072	1.057	0.945	1.096	0.965	0.858	0.911	0.846	0.861	0.686	0.766	0.680	0.643	0.612	0.733	0.744	0.763	0.930	1.019	0.906	0.904	0.804	0.881	0.768	0.896	0.850	0.809	1.023	1.037	1.057	0.866	0.766	0.785	0.752	0.674	0.757
630.0	55.84	55.76	57.76	45.49	35.03	34.90	37.57	44.54	52.60	62.46	74.23	83.51	99.62	80.53	48.43	33.04	29.42	50.22	418.0	353.7	11.10	2.625	2.571	2.474	2.200	1.995	2.299	2.000	2.000	1.869	1.802	1.687	1.509	1.524	1.536	1.290	1.278	1.265	1.159	1.104	1.027	0.896	0.893	0.959	0.984	0.845	0.839	0.793	0.784	0.760	0.643	0.705	0.636	0.653	0.591	0.657	0.719	0.753	0.825	0.948	0.878	0.859	0.751	0.805	0.777	0.832	0.878	0.868	0.967	0.988	1.098	0.877	0.853	0.759	0.689	0.656	0.692
635.0	52.27	62.28	55.59	44.13	37.74	34.22	36.83	43.34	49.76	61.49	73.49	82.87	85.96	86.88	54.36	34.37	27.42	23.91	115.2	516.0	61.74	2.772	2.315	2.222	1.916	1.875	1.956	1.769	1.737	1.631	1.654	1.507	1.403	1.293	1.311	1.221	1.262	1.056	1.060	0.990	0.843	0.821	0.873	0.829	0.813	0.808	0.736	0.818	0.784	0.713	0.626	0.617	0.689	0.598	0.602	0.575	0.680	0.670	0.733	0.855	0.855	0.844	0.812	0.792	0.702	0.831	0.826	0.884	0.956	0.890	0.948	1.085	0.901	0.758	0.737	0.690	0.677
640.0	55.90	57.04	62.41	43.93	34.57	34.07	38.86	41.60	49.70	61.42	72.73	80.41	79.21	83.24	61.29	35.15	28.57	18.72	32.53	352.9	293.3	5.587	2.197	1.975	1.737	1.813	1.653	1.495	1.565	1.462	1.523	1.380	1.288	1.415	1.278	1.093	1.084	1.004	0.930	0.950	0.950	0.787	0.817	0.734	0.814	0.757	0.712	0.740	0.650	0.576	0.558	0.572	0.601	0.564	0.588	0.599	0.622	0.709	0.642	0.707	0.713	0.877	0.817	0.779	0.762	0.868	0.746	0.883	0.803	0.818	0.821	1.058	0.973	0.747	0.712	0.701	0.617
645.0	60.68	63.55	61.37	44.70	34.08	33.19	35.16	41.41	48.06	59.15	69.77	76.03	76.39	74.97	65.83	36.04	27.57	17.96	13.19	141.9	464.0	32.96	2.333	1.853	1.889	1.623	1.556	1.544	1.523	1.481	1.501	1.340	1.214	1.155	1.261	1.103	0.974	1.049	0.932	0.860	0.869	0.815	0.702	0.723	0.738	0.701	0.674	0.670	0.618	0.565	0.532	0.556	0.558	0.521	0.497	0.540	0.623	0.646	0.646	0.627	0.700	0.765	0.807	0.792	0.753	0.800	0.754	0.828	0.903	0.738	0.884	0.951	0.885	0.797	0.724	0.664	0.702
650.0	58.82	64.15	60.41	46.72	32.82	30.31	35.24	41.90	46.33	55.58	65.24	73.90	72.03	69.38	68.15	37.18	26.10	16.49	8.832	41.17	425.0	152.7	2.919	1.989	1.778	1.567	1.473	1.487	1.475	1.441	1.400	1.353	1.145	1.273	1.170	1.023	0.986	1.001	0.910	0.806	0.739	0.799	0.710	0.636	0.691	0.610	0.731	0.653	0.634	0.586	0.541	0.534	0.572	0.567	0.549	0.519	0.660	0.556	0.642	0.629	0.672	0.719	0.757	0.838	0.809	0.771	0.761	0.781	0.818	0.693	0.770	0.798	0.956	0.817	0.708	0.749	0.701
