Sample:	'1
File name:	c090112袁家屋子南闸口入杏花河.FD3
Run date:	'12:17:26, 09/03/2024
Operator:	horiz
Comment:	'

Instrument
Model:	F-2700 FL Spectrophotometer
Serial number:	23B8-004
ROM Version:	4J14000 07

Instrument parameters
Measurement type:	3-D scan
Data mode:	Fluorescence
EX  Start WL:	220.0 nm
EX  End WL:	600.0 nm
EX Sampling interval:	5.0 nm
EM  Start WL:	230.0 nm
EM  End WL:	650.0 nm
EM Sampling interval:	5.0 nm
Scan speed:	12000 nm/min
EX Slit:	5.0 nm
EM Slit:	5.0 nm
PMT Voltage:	700 V
Response:	Auto 
Corrected spectra:	Off
Contour interval:	50.000

Peak integration
Integration method:	Rectangular
Sensitivity:	1
Threshold:	1.000

Peaks
No.	ApexEX/EM(nm)	Height(Data)
1	230.0/345.0	766.4
2	235.0/515.0	226.3
3	240.0/525.0	203.1
4	245.0/540.0	175.3
5	250.0/550.0	144.6
6	255.0/280.0	564.5
7	255.0/440.0	482.7
8	255.0/560.0	122.6
9	260.0/285.0	498.3
10	260.0/575.0	101.4
11	265.0/585.0	91.39
12	270.0/300.0	802.9
13	270.0/600.0	80.93
14	275.0/305.0	889.7
15	275.0/340.0	626.0
16	275.0/610.0	71.17
17	280.0/310.0	837.3
18	280.0/335.0	625.5
19	280.0/625.0	62.73
20	285.0/315.0	811.8
21	285.0/635.0	49.95
22	290.0/325.0	749.9
23	300.0/335.0	491.6
24	305.0/345.0	408.8
25	310.0/350.0	352.4
26	315.0/355.0	340.1
27	320.0/360.0	330.6
28	325.0/370.0	320.7
29	330.0/375.0	324.3
30	335.0/380.0	325.8
31	340.0/390.0	297.4
32	345.0/395.0	284.9
33	350.0/400.0	282.5
34	360.0/415.0	236.9
35	365.0/420.0	226.2
36	410.0/480.0	55.19
37	430.0/505.0	30.20
38	445.0/525.0	19.27
39	505.0/275.0	4.445
40	520.0/285.0	4.958
41	530.0/290.0	4.611
42	535.0/370.0	4.251
43	540.0/295.0	6.015
44	545.0/300.0	6.325
45	555.0/305.0	6.585
46	560.0/310.0	6.208
47	570.0/315.0	6.564
48	580.0/320.0	6.349
49	585.0/325.0	6.371

Wavelength data
No.	EX/EM(nm)	Height(Data)	

Data points
	220.0	225.0	230.0	235.0	240.0	245.0	250.0	255.0	260.0	265.0	270.0	275.0	280.0	285.0	290.0	295.0	300.0	305.0	310.0	315.0	320.0	325.0	330.0	335.0	340.0	345.0	350.0	355.0	360.0	365.0	370.0	375.0	380.0	385.0	390.0	395.0	400.0	405.0	410.0	415.0	420.0	425.0	430.0	435.0	440.0	445.0	450.0	455.0	460.0	465.0	470.0	475.0	480.0	485.0	490.0	495.0	500.0	505.0	510.0	515.0	520.0	525.0	530.0	535.0	540.0	545.0	550.0	555.0	560.0	565.0	570.0	575.0	580.0	585.0	590.0	595.0	600.0
230.0	97.33	1982	4671	1447	56.96	14.37	12.00	10.52	8.784	8.489	7.575	7.389	6.644	6.272	5.145	4.934	4.090	3.950	3.885	3.521	3.216	2.938	2.895	2.767	2.568	2.371	2.127	2.131	2.191	2.201	1.993	1.958	1.859	1.745	1.698	1.516	1.378	1.406	1.220	1.190	1.154	1.259	1.185	1.139	1.114	1.084	2.976	11.34	19.94	15.23	5.891	1.542	0.872	0.858	0.827	0.788	0.869	0.747	0.794	0.771	0.710	0.729	0.697	0.738	0.732	0.706	0.708	0.670	0.691	0.710	0.682	0.693	0.656	0.702	0.649	0.660	0.657
235.0	101.0	578.6	3585	5296	2170	108.1	15.30	12.87	9.750	9.337	8.125	7.836	7.094	7.042	5.907	5.549	4.419	4.024	3.996	3.519	3.291	3.044	3.137	2.708	2.558	2.600	2.280	2.342	2.246	2.089	2.098	1.896	1.825	1.793	1.743	1.583	1.499	1.418	1.173	1.128	1.160	1.084	1.223	1.296	1.234	1.079	1.427	3.469	8.395	17.08	26.06	23.18	13.22	3.003	0.920	0.863	0.908	0.800	0.755	0.856	0.757	0.716	0.684	0.785	0.843	0.742	0.727	0.720	0.757	0.770	0.685	0.658	0.670	0.635	0.654	0.674	0.648
240.0	139.2	207.8	1158	5874	7679	437.3	62.34	14.82	11.96	11.24	9.821	9.136	8.075	7.524	6.475	5.431	4.450	4.370	4.077	3.518	3.475	3.205	3.124	2.927	2.781	2.655	2.336	2.372	2.144	2.238	2.159	1.972	1.774	1.639	1.743	1.498	1.423	1.440	1.329	1.197	1.268	1.137	1.162	1.295	1.306	1.180	1.208	1.682	2.640	5.568	14.70	35.98	47.66	23.60	11.67	2.051	0.965	0.918	0.787	0.822	0.759	0.759	0.726	0.692	0.794	0.723	0.679	0.750	0.683	0.814	0.746	0.686	0.772	0.698	0.787	0.702	0.729
245.0	128.3	194.6	330.7	2184	9067	8089	349.2	31.52	16.30	13.45	11.22	9.924	8.950	7.576	6.529	5.466	5.053	4.379	4.131	3.960	3.973	3.099	3.189	2.944	2.887	2.705	2.421	2.305	2.161	2.353	2.081	2.211	1.694	1.742	1.811	1.411	1.527	1.457	1.399	1.303	1.322	1.225	1.180	1.156	1.228	1.278	1.453	1.534	1.390	2.059	4.059	12.77	34.02	55.73	57.76	22.00	8.272	1.299	0.908	0.834	0.905	0.795	0.839	0.706	0.858	0.767	0.683	0.749	0.879	0.750	0.727	0.670	0.671	0.672	0.781	0.683	0.726
250.0	86.65	164.2	268.3	587.7	2988	8971	9999.9	4015	102.4	19.19	15.56	12.04	10.74	9.046	7.429	6.363	5.568	5.167	4.850	3.914	3.933	3.315	3.489	3.070	3.041	2.962	2.631	2.485	2.352	2.413	2.231	2.205	1.895	1.827	1.784	1.574	1.605	1.475	1.384	1.452	1.303	1.276	1.243	1.162	1.166	1.148	1.242	1.542	1.709	1.726	1.889	3.584	8.751	18.33	36.09	54.15	74.11	61.44	16.98	8.422	1.615	0.912	0.879	0.827	0.858	0.795	0.775	0.747	0.874	0.742	0.781	0.809	0.714	0.706	0.664	0.675	0.732
255.0	71.90	86.03	194.1	392.0	761.1	2291	9813	9999.9	1918	127.2	21.80	17.11	14.05	10.79	8.829	7.064	5.982	5.562	5.359	4.113	4.093	3.691	3.609	3.296	3.140	2.872	2.825	2.588	2.472	2.438	2.399	2.097	1.919	1.915	1.893	1.435	1.592	1.350	1.468	1.361	1.451	1.269	1.329	1.168	1.189	1.137	1.058	1.099	1.293	1.758	2.087	2.561	2.893	4.908	8.884	13.58	26.94	63.13	112.7	116.8	26.79	10.96	1.461	1.037	0.933	0.789	0.795	0.880	0.862	0.752	0.794	0.771	0.779	0.837	0.727	0.749	0.751
260.0	73.96	66.49	94.74	307.5	422.0	585.3	3004	9999.9	9999.9	1607	89.64	24.30	18.10	14.24	10.90	8.552	7.295	6.003	5.573	5.011	4.218	3.659	3.621	3.661	3.307	3.037	2.788	2.872	2.695	2.690	2.747	2.163	1.921	2.049	1.740	1.601	1.594	1.545	1.501	1.379	1.509	1.324	1.272	1.273	1.322	1.225	1.071	1.147	0.993	1.199	1.515	2.612	2.850	2.562	2.971	3.898	7.016	17.08	48.12	110.7	152.6	127.6	22.86	6.416	1.274	0.939	0.967	0.857	0.885	0.759	0.812	0.787	0.841	0.910	0.786	0.794	0.767
265.0	80.20	67.08	59.50	154.9	404.4	328.5	742.3	4139	9999.9	9999.9	1245	49.36	24.65	17.55	12.45	9.974	8.750	7.044	5.758	5.383	4.785	3.944	4.169	3.769	3.881	3.525	3.217	3.228	2.763	2.985	2.666	2.578	2.305	2.148	1.617	1.696	1.643	1.613	1.486	1.450	1.481	1.448	1.503	1.243	1.304	1.221	1.144	1.178	1.027	1.076	1.113	1.671	2.658	3.260	2.557	1.912	2.581	4.752	11.88	31.94	82.24	167.0	185.5	32.53	17.47	2.741	1.108	1.104	0.960	0.877	0.909	0.860	0.827	0.870	0.895	0.848	0.853
270.0	86.58	67.20	52.12	72.97	206.4	398.9	393.6	1015	4190	9999.9	9999.9	4855	88.25	28.29	19.13	14.24	11.09	8.598	7.374	6.074	5.711	4.708	4.817	4.116	3.976	3.652	3.483	3.403	3.063	3.082	2.922	2.694	2.558	2.219	2.080	1.861	1.676	1.623	1.579	1.511	1.618	1.571	1.512	1.425	1.505	1.318	1.285	1.234	1.081	1.030	0.999	1.184	1.551	2.147	2.743	3.107	3.163	2.583	3.765	8.130	19.87	46.84	87.67	125.2	177.2	133.6	94.86	13.02	3.460	1.139	1.050	0.983	0.939	0.922	0.869	0.911	1.023
275.0	99.63	75.61	62.21	56.43	91.55	202.2	510.5	463.4	1004	2613	9999.9	9999.9	7292	105.9	30.76	20.06	15.37	11.11	9.722	7.696	6.774	5.772	5.615	4.934	4.551	3.733	3.767	3.462	3.148	3.359	3.200	3.089	2.765	2.561	2.362	2.132	1.924	1.697	1.544	1.605	1.629	1.689	1.619	1.445	1.584	1.511	1.178	1.332	1.184	1.087	1.025	1.145	1.195	1.404	1.649	2.081	3.242	4.445	3.777	3.269	5.470	11.55	20.63	29.41	50.01	100.9	227.6	246.5	33.20	18.18	2.525	1.119	1.151	1.016	1.052	0.979	1.078
280.0	121.8	89.92	69.73	60.21	67.21	105.1	322.7	564.5	383.6	658.2	3071	9999.9	9999.9	1033	78.10	29.08	20.48	14.05	11.89	9.289	7.682	6.961	6.143	5.353	4.968	4.340	3.871	3.776	3.574	3.381	3.175	2.945	2.558	2.656	2.448	2.204	2.164	1.912	1.748	1.766	1.701	1.668	1.622	1.602	1.640	1.459	1.444	1.398	1.291	1.099	1.054	1.080	1.138	1.273	1.399	1.456	1.856	3.167	4.753	4.493	3.137	3.730	5.555	7.623	12.32	25.12	73.72	177.6	277.7	237.5	30.54	13.02	1.729	1.249	1.213	1.092	1.124
285.0	132.1	113.8	84.16	69.51	61.99	78.57	146.3	473.1	498.3	255.3	780.8	4034	9999.9	9999.9	823.7	54.43	27.02	18.20	13.87	11.49	9.220	7.129	6.831	5.879	5.463	4.668	4.271	4.082	3.826	3.776	3.139	3.216	2.803	2.703	2.671	2.433	2.163	2.097	1.886	1.855	1.745	1.838	1.676	1.746	1.599	1.668	1.494	1.419	1.361	1.175	1.203	1.291	1.185	1.250	1.320	1.384	1.441	1.879	2.676	4.282	4.958	3.707	2.786	2.898	4.088	6.764	17.79	44.40	108.4	240.3	329.5	212.9	25.52	6.846	1.600	1.339	1.337
290.0	152.7	153.2	128.8	94.56	72.15	73.70	94.12	208.6	480.2	451.8	320.2	1033	4274	9999.9	9999.9	3329	64.54	29.69	20.50	14.63	11.69	9.284	8.098	6.789	6.079	5.573	4.978	4.590	4.177	3.870	3.567	3.408	3.280	2.926	2.837	2.525	2.342	2.062	2.017	1.905	1.833	1.779	1.679	1.757	1.749	1.756	1.709	1.699	1.551	1.309	1.346	1.370	1.347	1.247	1.371	1.385	1.413	1.462	1.752	2.213	3.161	4.049	4.611	3.986	2.984	2.927	5.383	11.43	25.81	59.79	117.7	188.2	208.0	251.7	136.2	17.87	7.899
295.0	178.3	197.5	170.6	126.5	87.40	82.43	92.45	134.0	225.7	533.7	637.3	396.6	1113	2547	9999.9	9999.9	5065	75.39	32.08	21.13	16.12	11.88	9.915	8.812	7.071	6.698	5.261	5.155	4.565	4.333	3.995	3.653	3.455	2.983	3.104	2.681	2.520	2.269	2.294	2.062	1.913	1.838	1.787	1.890	1.944	1.959	1.790	1.902	1.834	1.626	1.433	1.549	1.499	1.435	1.409	1.440	1.488	1.600	1.556	1.691	2.029	2.271	2.738	4.665	6.015	4.733	3.212	4.254	7.319	15.01	28.04	43.71	51.20	104.5	238.2	378.7	244.3
300.0	209.2	233.5	220.5	154.2	108.8	106.8	114.1	147.5	185.9	348.0	802.9	540.4	469.0	737.2	2888	9999.9	9999.9	3872	61.84	29.52	20.84	15.21	12.27	10.27	8.321	7.056	5.986	5.730	4.853	4.619	4.471	4.120	3.803	3.190	3.266	2.806	2.725	2.504	2.384	2.176	2.055	2.143	2.007	1.867	1.769	2.046	1.946	2.051	1.957	1.688	1.632	1.731	1.573	1.597	1.493	1.474	1.613	1.611	1.759	1.831	2.022	2.042	2.245	3.174	5.076	6.325	5.317	3.721	3.652	5.258	8.082	11.72	13.15	25.54	65.00	176.7	356.4
305.0	223.6	270.9	263.4	186.9	129.5	126.0	148.0	190.5	222.8	316.2	609.6	889.7	484.3	387.0	823.5	3746	9999.9	9999.9	553.6	48.16	27.07	19.86	14.73	11.57	9.420	8.400	7.155	6.456	5.678	5.195	4.732	4.384	4.182	3.362	3.468	2.776	2.896	2.720	2.511	2.326	2.436	2.119	2.012	2.004	1.828	2.012	2.067	2.225	2.088	1.843	1.753	1.790	1.651	1.793	1.566	1.639	1.661	1.915	2.070	2.166	2.494	2.420	2.477	2.824	3.589	4.496	5.994	6.585	4.526	3.749	4.032	4.849	4.928	7.683	16.45	42.37	107.6
310.0	262.0	318.4	310.2	217.5	157.0	152.3	181.3	251.1	276.9	349.9	484.5	745.4	837.3	474.1	405.7	999.5	4087	9999.9	9999.9	9999.9	52.87	29.17	20.55	15.34	11.77	9.782	8.350	7.237	6.537	5.723	5.388	4.619	4.433	3.854	3.658	3.195	3.022	2.944	2.832	2.426	2.510	2.253	2.178	2.181	2.130	2.374	2.189	2.392	2.297	2.042	1.812	1.886	1.863	1.958	1.784	1.886	2.056	2.154	2.319	2.316	2.579	2.721	2.899	3.292	3.370	3.592	4.165	5.297	6.208	5.972	5.109	3.992	3.442	4.017	5.676	11.15	25.87
315.0	296.4	376.6	361.5	255.3	184.8	173.5	207.4	288.6	312.2	390.9	482.4	580.9	744.4	811.8	424.8	404.4	1046	2500	9999.9	9999.9	3775	59.45	30.71	21.59	15.46	12.33	9.617	7.900	7.432	6.702	6.357	5.290	5.098	4.189	4.141	3.427	3.145	3.127	2.954	2.527	2.608	2.292	2.425	2.330	2.319	2.537	2.371	2.757	2.578	2.356	2.016	2.071	1.989	2.055	1.942	2.122	2.374	2.276	2.402	2.472	2.586	2.871	2.997	3.472	3.657	3.798	3.886	4.288	4.682	5.218	6.564	6.353	4.799	3.758	3.364	4.447	7.533
320.0	323.9	424.0	425.0	307.8	214.5	194.6	231.5	314.7	327.3	427.0	513.9	564.1	622.0	789.9	641.3	308.1	378.5	667.5	2813	9999.9	9999.9	3048	52.98	29.04	20.13	14.64	11.48	9.243	8.453	7.433	6.483	5.645	5.460	4.693	4.233	3.503	3.460	3.308	2.920	2.725	2.537	2.478	2.568	2.464	2.431	2.634	2.557	2.958	2.723	2.457	2.302	2.426	2.160	2.180	2.095	2.070	2.413	2.432	2.372	2.566	2.739	2.870	3.242	3.718	3.895	4.041	3.817	4.241	4.355	4.564	5.167	6.059	6.349	4.997	3.714	3.160	3.716
325.0	362.6	491.9	508.1	378.0	245.6	217.2	240.9	334.2	352.2	444.4	526.0	580.6	601.7	625.7	749.9	418.5	241.3	257.4	713.1	3737	9999.9	9999.9	437.2	43.57	25.27	18.94	13.91	11.36	9.158	8.173	6.936	6.092	5.606	4.999	4.515	3.996	3.705	3.324	3.242	2.752	2.709	2.671	2.675	2.606	2.528	2.823	2.738	3.211	2.991	2.692	2.606	2.561	2.343	2.430	2.259	2.140	2.415	2.559	2.513	2.641	2.756	3.128	3.258	3.918	3.881	4.026	3.844	4.205	4.179	4.317	4.357	4.563	5.270	6.371	5.149	3.794	2.713
330.0	376.6	564.0	622.6	501.3	323.6	259.7	267.2	351.0	362.4	459.1	548.2	605.9	615.3	563.3	580.9	563.6	337.4	185.1	246.0	912.4	4164	9999.9	9999.9	9177	45.99	27.02	19.44	14.25	11.51	9.610	8.294	7.075	6.198	5.136	4.871	4.032	3.893	3.445	3.318	3.108	2.777	2.787	2.769	2.666	2.708	3.040	2.975	3.511	3.385	3.113	2.870	2.930	2.767	2.656	2.482	2.371	2.484	2.610	2.772	2.809	3.067	3.085	3.370	3.991	3.947	4.061	4.176	4.347	4.187	4.365	4.440	4.305	4.244	4.480	4.829	4.882	4.493
335.0	427.9	615.8	721.8	617.0	424.5	316.5	294.4	366.5	382.0	470.6	552.1	623.7	625.5	560.0	495.9	443.3	491.6	272.1	158.7	286.8	1003	2485	9999.9	9999.9	3170	51.68	27.72	19.94	14.80	12.41	10.35	8.124	6.714	5.856	5.652	4.453	4.196	3.830	3.551	3.230	2.984	2.949	2.945	2.949	2.834	3.124	3.251	3.788	3.731	3.453	3.313	3.671	3.176	2.933	2.872	2.547	2.666	2.932	2.838	2.734	3.153	3.294	3.548	3.673	4.053	4.020	4.326	4.308	4.463	4.314	4.535	4.378	4.194	3.719	3.931	3.818	4.373
340.0	434.6	633.1	742.8	654.8	485.3	349.2	317.4	380.7	394.9	475.0	560.6	626.0	621.8	557.5	482.2	378.4	423.3	406.1	181.7	157.1	305.8	631.0	2990	9999.9	9999.9	2626	45.21	24.83	17.81	14.19	11.51	8.756	7.870	6.308	5.829	4.548	4.312	3.806	3.592	3.358	3.129	2.871	2.976	3.050	2.698	3.229	3.461	4.007	4.018	3.550	3.474	3.698	3.435	3.222	3.074	2.790	2.760	2.963	3.079	3.073	3.153	3.501	3.454	4.008	4.150	3.970	4.471	4.220	4.504	4.274	4.361	4.257	4.329	3.665	3.742	3.240	3.438
345.0	420.3	639.7	766.4	689.9	508.7	376.4	343.6	392.6	413.2	487.3	560.8	612.6	611.7	549.5	474.3	362.9	323.4	408.8	290.5	148.9	158.7	222.8	749.1	4108	9999.9	9999.9	379.2	36.37	21.95	17.28	12.98	9.797	8.446	6.996	6.167	4.957	4.359	3.958	3.706	3.462	3.041	2.783	2.936	3.040	2.966	3.342	3.281	4.055	4.001	3.709	3.512	3.900	3.837	3.249	3.292	2.830	3.135	2.998	3.001	3.091	3.205	3.238	3.431	3.867	4.090	3.956	4.098	4.282	4.347	4.309	4.052	4.375	4.126	3.931	3.630	3.216	3.166
350.0	408.3	609.3	741.0	694.0	538.3	415.5	372.6	416.8	438.3	504.3	562.6	610.3	588.4	527.3	462.8	361.1	294.5	302.0	352.4	257.1	155.0	145.7	253.8	999.7	4691	9999.9	9999.9	7777	40.45	23.65	17.01	12.59	9.765	7.691	6.863	5.508	4.791	4.310	3.846	3.539	3.131	2.961	2.978	3.014	3.110	3.214	3.381	3.950	3.799	3.766	3.548	3.942	3.767	3.403	3.482	3.012	3.190	3.221	3.118	3.295	3.316	3.507	3.797	4.026	4.053	4.116	4.037	4.123	4.179	4.267	4.058	3.935	3.847	3.796	3.588	3.070	3.138
355.0	377.5	565.9	696.9	681.4	556.8	450.6	411.8	442.4	465.6	525.1	563.3	598.7	557.8	508.4	449.6	363.3	298.5	265.0	272.9	340.1	245.5	152.7	155.6	305.8	1115	2544	9999.9	9999.9	2896	45.51	24.08	16.68	12.57	9.196	8.183	5.910	5.084	4.505	3.959	3.754	3.455	3.188	2.913	3.083	3.043	3.267	3.297	3.849	3.800	3.841	3.405	3.907	3.698	3.358	3.646	3.191	3.495	3.343	3.283	3.711	3.508	3.500	3.866	4.104	4.207	3.997	3.909	4.186	4.055	3.991	3.825	3.818	3.721	3.659	3.404	3.411	3.027
360.0	370.5	504.9	663.8	651.7	564.9	468.2	429.6	461.2	486.6	528.4	557.1	579.3	538.5	496.2	436.6	366.6	304.1	265.7	246.4	294.8	330.6	199.6	147.2	160.5	325.0	635.3	3123	9999.9	9999.9	2346	40.26	22.08	15.95	11.17	9.194	7.007	5.609	5.198	4.527	3.743	3.464	3.282	3.060	2.882	2.865	3.234	3.038	3.710	3.489	3.461	3.522	4.073	3.717	3.596	3.469	3.437	3.466	3.298	3.405	3.651	3.781	3.735	3.788	4.139	4.084	4.126	3.957	4.034	3.963	4.023	3.983	3.592	3.972	3.564	3.520	3.328	3.280
365.0	357.8	495.8	639.0	623.6	564.3	482.0	451.2	483.3	496.5	540.0	568.0	576.9	526.5	478.9	428.2	366.8	311.8	276.0	250.5	253.9	326.3	289.5	171.4	140.0	160.3	215.2	766.2	4584	9999.9	9999.9	347.6	31.70	20.12	13.72	10.99	7.682	6.470	5.403	4.994	3.999	3.726	3.459	3.273	3.156	3.096	3.055	3.171	3.618	3.795	3.301	3.471	3.869	3.685	3.647	3.529	3.402	3.506	3.433	3.412	3.765	3.703	3.659	3.588	4.194	4.228	4.206	4.155	3.947	4.130	3.684	3.783	3.840	3.669	3.575	3.497	3.272	3.167
370.0	333.1	485.8	594.4	606.9	570.2	499.8	470.7	495.4	509.4	547.6	564.7	569.2	508.9	467.8	417.4	364.5	323.0	292.1	268.1	255.0	274.1	320.7	270.0	173.2	142.0	135.9	243.2	1095	5087	9999.9	9999.9	6868	36.00	19.11	14.54	10.03	7.414	6.425	5.249	4.513	4.183	3.741	3.538	3.329	3.334	3.059	3.213	3.566	3.665	3.264	3.269	3.759	3.774	3.819	3.564	3.453	3.378	3.646	3.675	3.713	3.678	3.804	3.886	4.251	4.028	4.051	3.736	4.058	3.948	3.876	3.675	3.635	3.588	3.633	3.512	3.232	3.182
375.0	315.5	457.8	567.3	611.7	570.2	516.6	493.2	505.9	522.4	545.6	560.7	560.9	504.4	456.0	405.1	363.5	326.2	305.3	285.8	273.6	268.7	273.6	324.3	262.3	168.0	137.2	141.2	316.5	1196	2661	9999.9	9999.9	2521	37.74	20.02	13.21	9.933	7.626	6.135	5.393	4.462	4.162	3.958	3.555	3.291	3.181	3.293	3.518	3.559	3.332	3.394	3.919	3.993	3.757	3.659	3.703	3.638	3.606	3.629	3.666	3.673	3.902	3.846	4.139	3.910	4.131	3.717	4.044	3.714	3.821	3.749	3.393	3.398	3.660	3.580	3.216	3.313
380.0	323.9	437.5	551.9	592.8	575.0	543.1	496.6	511.9	512.5	532.1	555.8	549.1	502.0	453.2	399.9	357.1	326.4	309.8	297.4	283.3	274.0	262.7	294.4	325.8	220.8	156.4	135.6	156.0	338.5	658.6	3368	9999.9	9999.9	1938	32.78	15.96	12.02	8.995	7.000	5.717	4.885	4.512	4.246	3.498	3.342	3.222	3.343	3.419	3.493	3.560	3.478	3.916	3.837	3.769	3.714	3.579	3.788	3.605	3.843	3.553	3.627	3.873	4.045	3.882	3.950	3.903	3.899	3.928	3.650	3.834	3.736	3.383	3.449	3.484	3.593	3.108	3.180
385.0	314.8	423.6	546.2	572.9	569.4	544.6	505.7	501.4	513.9	529.6	549.5	533.5	491.8	440.9	392.5	353.6	326.4	313.1	298.8	289.2	282.4	269.1	269.9	313.7	289.5	187.4	148.1	131.9	156.9	214.0	818.9	4855	9999.9	9999.9	286.9	23.17	15.13	10.50	7.695	6.356	5.237	4.993	4.367	3.725	3.540	3.356	3.322	3.470	3.448	3.234	3.243	3.876	3.747	3.732	3.693	3.598	3.916	3.832	3.786	3.783	3.896	3.987	3.927	4.188	4.029	3.963	3.997	3.893	3.799	3.601	3.710	3.477	3.354	3.494	3.445	3.203	3.265
390.0	304.4	415.8	518.5	560.0	569.1	538.2	508.2	510.3	512.8	527.4	534.6	517.8	477.6	430.8	382.4	346.9	324.7	314.0	304.4	299.2	289.3	278.2	269.5	276.6	297.4	259.7	180.9	143.3	129.3	126.5	246.5	1149	4991	9999.9	9999.9	5381	27.71	14.58	10.24	8.019	6.252	5.441	4.644	4.185	4.058	3.732	3.421	3.673	3.596	3.230	3.210	3.908	3.785	3.845	3.852	3.539	3.963	3.886	3.841	3.855	3.814	3.907	3.754	3.954	3.901	3.854	3.838	3.777	3.699	3.591	3.543	3.488	3.402	3.304	3.359	3.245	3.339
395.0	300.0	398.6	509.1	550.7	559.3	539.0	509.3	506.7	504.8	508.6	514.0	502.9	467.0	416.4	374.9	343.0	322.8	313.8	306.9	303.4	292.9	287.9	277.2	269.7	263.5	284.9	248.6	169.9	138.8	117.5	128.3	312.5	1158	2606	9999.9	9999.9	2090	31.00	14.33	10.61	8.116	6.400	5.561	4.720	4.157	4.229	3.704	3.793	3.798	3.384	3.205	3.836	3.994	3.864	3.798	3.826	4.038	4.001	3.929	3.922	3.773	3.637	3.812	3.843	3.844	3.850	3.709	3.628	3.641	3.580	3.565	3.582	3.396	3.143	3.458	3.543	3.415
400.0	298.3	384.9	479.5	545.4	560.5	542.1	512.4	513.2	504.9	499.6	509.2	494.0	455.8	411.1	371.6	339.6	320.2	309.6	302.7	301.7	295.6	288.8	282.6	273.4	256.1	263.2	282.5	211.3	152.1	125.2	108.7	131.5	306.9	624.1	3238	9999.9	9999.9	1629	24.46	13.03	9.286	7.450	6.050	5.089	4.333	4.219	3.776	3.828	3.770	3.724	3.356	3.691	4.129	3.751	3.734	3.960	3.906	4.044	3.970	3.898	3.910	3.875	3.601	3.838	3.812	3.905	3.714	3.523	3.376	3.407	3.367	3.394	3.374	3.248	3.250	3.273	3.172
405.0	280.5	370.4	479.6	521.3	546.4	537.6	513.4	511.1	502.2	494.9	497.2	482.6	450.3	407.2	369.9	335.3	316.0	307.7	299.5	297.8	297.5	291.7	286.8	274.5	262.8	250.4	269.2	257.3	177.7	137.4	112.8	97.42	120.4	180.5	766.5	4283	9999.9	9999.9	248.4	18.54	11.62	8.712	6.968	5.391	4.618	4.509	3.920	4.077	3.801	3.426	3.439	3.864	3.878	3.931	3.657	3.801	3.901	3.918	3.610	3.714	3.636	3.589	3.737	3.564	3.675	3.690	3.652	3.352	3.574	3.503	3.451	3.502	3.408	3.260	3.219	2.965	3.178
410.0	267.3	363.4	466.0	514.7	532.6	525.1	503.2	508.2	496.8	486.5	483.4	469.1	432.1	401.3	356.5	325.1	307.3	300.4	293.3	292.1	292.4	288.5	284.6	276.1	263.8	249.3	240.6	255.7	228.2	162.0	124.3	99.31	85.96	85.43	208.3	996.7	4262	9999.9	9999.9	4438	23.21	11.58	8.730	6.607	5.436	4.774	4.166	4.246	4.001	3.643	3.429	3.727	3.846	3.879	3.660	3.750	3.977	3.883	3.704	3.723	3.836	3.632	3.707	3.714	3.640	3.494	3.449	3.471	3.421	3.396	3.266	3.276	3.267	3.157	3.183	3.079	3.068
415.0	269.7	349.7	440.6	503.3	519.5	508.3	498.4	498.9	491.8	478.8	465.2	454.2	418.3	379.0	349.5	317.0	295.5	283.6	280.3	280.3	280.8	278.8	280.4	272.3	259.9	246.4	231.2	224.9	236.9	208.9	142.2	105.8	83.99	68.58	85.96	253.4	976.6	2549	9999.9	9999.9	1875	27.38	11.57	8.333	6.653	5.637	4.580	4.354	4.144	3.712	3.569	3.851	3.786	3.803	3.927	3.771	3.980	3.837	3.599	3.809	3.809	3.886	3.770	3.723	3.443	3.367	3.417	3.237	3.615	3.303	3.245	3.154	3.304	3.067	3.139	3.104	3.003
420.0	260.6	353.5	435.8	485.7	511.9	509.4	499.4	490.0	481.6	471.8	458.5	440.8	407.7	369.9	337.0	309.5	286.5	278.9	272.8	272.0	270.8	266.8	270.2	264.9	254.6	240.9	230.1	216.8	213.6	226.2	170.6	113.0	89.25	69.22	62.26	90.00	245.9	595.8	2949	9999.9	9999.9	1535	22.46	10.43	8.162	6.302	5.021	4.912	4.224	3.844	3.586	3.811	4.054	3.932	3.850	3.649	3.861	3.771	3.917	3.923	3.831	3.925	3.567	3.669	3.257	3.436	3.372	3.336	3.443	3.224	3.286	3.285	3.206	3.026	3.107	3.028	3.090
425.0	257.4	351.1	412.8	460.8	500.1	502.4	495.5	479.6	478.0	462.4	451.6	429.8	399.3	365.2	327.3	300.0	277.6	265.2	263.4	262.7	260.9	258.8	263.3	258.5	251.1	237.3	226.1	213.2	199.8	209.2	199.0	130.3	92.60	73.07	59.88	55.55	84.72	158.4	685.1	3675	9999.9	9999.9	244.4	16.76	9.671	7.413	5.822	5.326	4.214	3.982	3.611	3.950	4.118	3.968	4.082	3.663	3.813	3.954	3.926	3.841	3.715	3.769	3.619	3.580	3.287	3.279	3.473	3.202	3.371	3.335	3.229	3.287	3.072	2.890	3.104	3.014	3.088
430.0	284.1	337.9	403.5	457.1	477.8	486.8	496.1	485.0	472.5	458.3	441.7	418.9	388.3	352.5	317.6	286.9	266.4	256.2	254.0	249.1	251.2	248.7	251.5	247.7	241.5	231.6	221.6	209.4	196.8	187.7	190.1	162.9	110.4	80.76	63.38	52.53	51.08	61.46	175.6	846.4	3563	9999.9	9999.9	4513	22.03	10.35	7.268	6.326	5.195	4.230	3.832	4.103	3.953	3.994	3.954	3.820	3.918	4.022	3.994	3.815	3.814	3.793	3.642	3.671	3.335	3.439	3.309	3.366	3.193	3.164	3.088	3.139	3.054	2.874	2.778	2.925	3.123
435.0	474.6	327.6	391.3	441.2	468.5	480.1	485.7	478.8	475.9	458.8	434.8	406.8	374.1	339.3	305.7	278.2	260.9	245.5	238.7	236.9	237.3	236.6	235.1	238.8	231.9	225.4	215.7	206.9	195.1	180.8	166.3	166.2	141.2	94.81	69.59	56.73	46.93	43.57	63.75	209.3	813.0	2402	9842	9999.9	1875	27.01	10.43	8.156	6.017	4.812	4.409	4.329	4.257	4.131	3.984	4.002	4.014	4.160	4.022	3.990	3.801	3.747	3.846	3.850	3.371	3.434	3.101	3.030	2.818	3.034	3.122	2.850	2.920	2.722	2.898	2.765	2.983
440.0	826.7	368.5	371.1	434.4	461.3	467.8	480.8	482.7	474.3	447.7	432.7	399.6	361.0	328.2	295.4	271.6	250.4	238.0	231.5	229.7	226.9	227.6	224.2	227.2	224.0	219.0	210.8	201.3	193.0	177.9	161.4	150.7	151.6	111.9	77.42	60.72	48.32	40.50	39.65	68.48	200.1	554.9	2642	9999.9	9999.9	1597	21.30	10.16	7.023	5.494	4.950	4.333	4.461	4.481	4.204	4.233	4.400	4.109	4.098	3.952	3.665	3.852	3.649	3.612	3.502	3.478	3.286	2.886	3.104	2.991	3.099	3.020	2.816	2.668	2.896	2.679	2.887
445.0	1091	643.1	371.8	422.7	455.0	460.2	480.4	473.2	451.5	433.4	414.8	389.3	353.7	315.5	287.4	256.7	236.2	230.4	224.0	220.1	216.5	216.1	213.6	219.3	216.9	209.5	204.4	196.3	187.5	175.1	160.0	141.1	138.6	130.0	88.90	63.40	51.58	42.25	36.32	38.38	63.93	141.7	609.8	3208	9999.9	9999.9	220.0	18.04	8.330	6.730	5.395	5.309	4.754	4.318	4.160	4.077	4.642	4.168	4.034	3.909	3.746	3.748	3.635	3.523	3.483	3.503	3.406	2.986	3.084	2.816	2.999	2.839	2.839	2.620	2.815	2.436	2.647
450.0	832.0	1575	571.6	404.7	430.6	440.5	466.6	463.9	437.1	421.2	394.7	372.0	335.1	302.3	270.3	243.7	225.7	214.1	208.8	206.9	200.2	201.4	201.2	202.8	201.2	197.3	192.3	186.6	179.1	169.6	154.6	135.7	122.5	120.0	106.9	74.39	55.90	45.64	38.04	33.78	35.41	50.20	153.1	735.4	3179	9999.9	9999.9	4915	20.02	9.153	6.553	6.169	5.443	4.843	4.367	4.385	4.553	4.394	4.150	3.909	3.925	3.656	3.517	3.479	3.436	3.409	3.221	3.029	2.952	3.084	3.012	2.722	2.713	2.671	2.770	2.536	2.641
455.0	389.9	2089	1662	409.8	400.1	421.1	439.3	445.0	417.6	397.1	374.0	354.7	312.9	283.9	252.6	225.2	208.7	198.7	190.6	186.9	182.8	179.2	182.7	186.0	182.4	181.7	177.5	173.2	168.4	160.8	147.8	130.1	116.3	103.3	103.0	91.00	63.58	48.21	40.13	33.61	29.85	30.82	51.23	179.0	723.7	2325	7171	9999.9	6442	22.71	9.105	7.434	5.926	5.277	4.597	4.501	4.472	4.371	3.905	4.158	3.893	3.678	3.532	3.745	3.334	3.193	3.101	2.954	2.876	2.777	2.836	2.704	2.667	2.716	2.641	2.434	2.420
460.0	233.6	1524	3193	624.8	386.8	403.4	413.5	417.8	399.2	378.8	358.3	336.1	298.5	267.6	238.3	211.8	196.2	188.2	180.2	176.2	167.9	166.5	169.1	171.9	170.2	168.0	165.2	162.1	159.6	152.0	141.1	126.7	111.3	95.82	90.47	93.31	72.82	51.95	41.39	34.70	29.57	26.25	28.70	55.55	175.6	533.7	1787	9437	9999.9	1384	20.14	9.408	6.998	5.763	5.224	4.869	4.731	4.409	4.196	4.055	4.116	3.475	3.438	3.585	3.272	3.129	3.331	2.834	2.885	2.859	2.744	2.610	2.561	2.468	2.382	2.238	2.338
465.0	195.1	745.0	3944	1714	375.2	376.9	394.1	400.6	380.6	358.5	342.5	316.0	283.8	253.5	225.2	200.2	185.5	175.6	167.5	163.9	158.6	156.3	157.8	158.4	157.4	156.0	155.5	152.2	150.2	146.0	134.8	121.3	105.9	93.29	81.20	82.66	79.96	57.89	42.85	35.38	29.77	26.30	23.64	28.06	53.44	133.4	414.2	2523	9999.9	9999.9	1203	19.86	8.884	6.686	6.014	5.112	5.069	4.724	4.319	4.223	3.913	3.637	3.357	3.346	3.240	3.316	2.943	2.921	2.958	2.823	2.621	2.603	2.516	2.435	2.227	2.358	2.296
470.0	198.1	339.7	2443	4146	871.0	349.2	368.4	366.9	346.5	327.8	310.6	286.6	259.3	230.0	207.6	182.5	167.0	159.0	151.0	145.6	142.1	138.9	139.8	140.1	140.6	139.2	140.6	137.9	136.3	131.6	123.0	112.5	99.31	86.83	76.49	69.93	70.63	64.64	47.46	35.95	30.48	26.36	23.02	21.97	26.60	42.94	104.7	576.7	2679	7822	9999.9	5067	94.10	9.521	6.916	5.742	5.329	4.849	4.553	4.111	3.919	3.731	3.344	3.339	3.165	3.018	2.802	2.712	2.734	2.473	2.520	2.521	2.383	2.381	2.220	2.225	2.245
475.0	205.1	234.2	833.1	4552	3031	374.3	328.4	331.3	316.5	296.6	283.1	262.3	240.4	210.8	184.1	164.8	152.7	143.1	136.1	131.0	126.0	122.9	123.4	124.1	123.9	121.9	123.6	122.2	121.2	118.5	113.5	102.1	91.60	80.54	70.96	63.83	58.20	59.68	54.50	39.32	30.90	25.78	23.00	20.54	19.55	22.76	34.66	138.5	606.9	1768	4303	9999.9	6451	28.02	8.771	6.584	5.499	4.794	4.327	4.224	3.812	3.580	3.227	3.150	3.022	2.828	2.659	2.585	2.615	2.528	2.289	2.465	2.381	2.255	2.116	2.240	1.985
480.0	183.2	217.4	357.3	2860	5261	832.8	312.3	306.4	295.6	282.1	269.8	246.2	224.5	192.6	174.1	155.5	142.2	132.0	127.3	118.5	116.6	113.4	111.7	113.3	113.5	112.6	113.7	112.7	111.6	108.1	104.6	96.89	86.24	76.16	68.30	60.75	53.60	51.41	55.19	44.09	31.70	25.94	22.99	20.15	17.97	17.76	18.97	41.14	144.9	403.6	1010	5293	9999.9	1698	24.59	8.478	6.398	5.158	4.696	4.288	3.685	3.589	3.315	3.153	2.831	2.766	2.682	2.506	2.565	2.498	2.274	2.344	2.297	2.185	2.120	2.137	2.174
485.0	176.7	230.5	243.5	1203	5927	2329	309.1	292.1	279.3	263.8	251.0	232.4	208.4	183.4	163.3	145.8	131.9	122.9	117.2	111.2	107.8	104.3	102.1	105.1	105.2	104.4	105.2	104.2	103.9	101.7	97.07	90.41	82.01	73.27	64.88	57.37	50.96	45.83	48.85	48.04	34.91	26.89	23.03	20.45	18.09	16.47	15.52	19.01	41.62	99.00	235.1	1310	7379	9999.9	1501	20.14	8.062	6.006	5.295	4.502	3.914	3.532	3.232	2.983	2.969	2.668	2.598	2.573	2.456	2.472	2.147	2.247	2.196	2.224	2.015	2.083	2.083
490.0	154.5	232.2	220.6	450.8	3422	5360	893.5	271.4	258.6	243.2	233.7	213.5	191.4	170.1	147.4	132.7	121.4	111.2	107.1	101.6	97.72	94.65	93.34	94.08	94.71	94.75	93.15	94.93	95.51	94.27	90.15	83.56	74.89	67.91	61.33	53.75	48.49	43.67	40.67	43.28	39.85	30.45	23.35	20.53	18.41	16.33	14.93	14.61	18.42	30.13	60.39	300.5	1817	5876	9999.9	5947	118.9	9.824	6.239	4.990	4.301	3.808	3.301	3.088	2.958	2.762	2.454	2.404	2.449	2.214	2.190	2.197	2.094	1.990	1.939	2.028	1.874
495.0	117.1	218.8	234.5	258.7	1061	5632	2857	302.0	241.4	224.3	213.1	195.8	178.2	156.2	135.3	120.0	108.7	100.6	94.71	91.50	86.04	85.05	84.60	84.03	84.59	84.10	84.15	84.62	85.45	84.25	80.43	76.44	68.40	62.48	55.96	50.65	45.15	40.98	37.28	34.98	37.36	35.36	25.79	20.85	18.20	16.17	14.99	13.77	13.31	14.81	20.92	74.35	412.0	1321	3609	9999.9	8358	182.7	9.268	5.848	4.751	3.795	3.645	3.187	2.984	2.822	2.646	2.389	2.302	2.195	2.213	2.082	2.021	1.918	1.885	1.801	1.759
500.0	105.5	174.2	248.9	213.8	397.7	3404	6083	786.8	217.6	205.1	195.8	180.3	161.2	144.5	124.5	111.2	99.76	93.89	88.19	83.45	78.69	76.33	75.88	76.31	76.30	76.87	76.54	76.45	76.84	77.97	75.33	68.99	63.38	58.22	52.88	48.09	43.00	38.86	35.12	31.55	31.88	34.88	29.13	21.14	18.57	16.26	14.88	13.25	12.43	11.34	11.91	23.57	98.68	301.9	830.9	4358	9999.9	6143	29.75	7.605	5.515	4.106	3.470	3.291	3.250	2.949	2.418	2.249	2.114	2.284	2.149	1.987	1.890	1.771	1.807	1.747	1.715
505.0	100.2	146.5	235.0	202.1	239.9	1367	7062	2162	217.1	191.2	181.1	170.3	149.7	132.9	114.2	100.2	90.92	86.60	80.88	77.51	72.64	70.99	70.08	69.48	69.88	69.00	69.43	70.68	70.20	71.73	68.94	64.21	58.53	53.25	48.75	44.12	40.25	36.14	32.49	29.70	27.67	29.94	30.20	22.83	18.00	15.88	14.47	12.49	11.92	10.48	9.924	11.88	28.47	74.04	193.0	1034	5785	9999.9	1776	23.86	6.894	4.683	3.976	3.447	3.174	2.641	2.548	2.432	2.252	2.082	2.130	1.859	1.772	1.842	1.789	1.743	1.867
510.0	102.9	123.0	189.1	223.1	184.3	457.2	4117	6228	734.4	176.9	164.6	153.5	136.8	121.3	102.2	90.41	82.91	76.33	71.40	67.94	63.61	62.11	62.23	61.57	62.25	61.70	60.64	61.51	62.51	62.46	60.25	57.16	52.12	47.82	43.63	39.88	36.58	33.35	29.77	27.09	25.12	24.51	26.94	25.82	19.48	15.47	13.60	12.29	10.92	10.13	9.214	9.053	12.24	22.35	49.10	237.6	1377	4925	8892	5038	123.6	8.078	4.538	3.830	3.334	2.778	2.535	2.341	2.361	2.116	1.900	1.863	1.805	1.753	1.640	1.555	1.696
515.0	98.30	110.1	144.1	226.3	180.2	219.3	1211	7174	3453	201.1	144.9	136.7	122.6	107.6	93.20	81.25	74.23	67.68	63.32	59.01	56.31	54.97	53.17	54.32	53.17	52.73	52.96	52.66	53.35	53.75	52.50	49.68	45.31	42.73	38.86	35.43	32.00	30.34	27.82	25.13	22.26	21.06	20.96	23.76	21.99	16.60	13.22	11.86	10.39	9.500	8.720	8.470	8.426	10.41	16.50	58.47	312.9	1105	2793	8904	6660	183.1	7.035	4.516	3.586	2.790	2.624	2.319	2.311	2.162	1.932	1.913	1.833	1.715	1.603	1.470	1.583
520.0	90.27	99.47	119.7	190.4	192.3	160.7	386.1	4449	6842	600.6	134.5	123.7	111.0	98.56	85.09	74.20	65.87	60.46	57.39	53.95	50.26	49.27	49.40	47.67	47.80	48.03	47.08	47.38	48.08	48.46	47.60	44.08	40.82	38.29	36.27	32.21	29.05	27.17	24.78	22.46	21.00	19.19	18.52	19.73	21.78	18.16	12.85	11.62	9.738	9.277	8.108	7.889	7.547	7.374	8.791	17.85	75.03	252.0	637.7	3410	9870	1971	29.16	5.882	3.851	3.216	2.712	2.465	2.266	2.061	1.967	1.831	1.650	1.703	1.374	1.444	1.464
525.0	85.91	89.27	107.1	148.3	203.1	146.9	191.9	1698	8388	1693	134.9	116.9	101.1	88.64	78.15	67.65	60.27	54.64	51.56	49.38	46.08	44.30	44.71	43.52	43.00	43.91	42.83	42.97	43.91	42.98	43.18	40.13	38.17	34.88	32.42	29.88	26.89	25.57	23.35	21.30	19.67	17.91	16.59	16.98	18.99	19.27	13.86	10.73	9.454	8.620	7.669	7.462	7.260	6.445	6.541	8.786	21.30	61.15	148.2	796.5	4509	8620	1742	22.90	5.047	3.399	2.716	2.713	2.224	2.123	1.962	1.651	1.683	1.637	1.424	1.440	1.392
530.0	79.22	81.22	96.18	111.4	182.6	159.7	133.1	495.8	4946	6515	609.9	105.5	91.64	81.11	69.16	61.19	54.26	49.41	46.74	43.26	40.33	39.15	38.78	38.34	37.25	37.81	37.65	37.56	38.35	38.44	38.17	35.17	33.62	31.00	28.33	26.52	24.55	22.47	21.25	19.36	17.36	16.72	14.96	14.54	14.97	17.15	15.81	11.42	9.263	8.083	7.129	6.679	6.345	6.467	6.086	6.253	9.006	17.75	37.48	182.4	1056	3701	6339	3961	121.4	6.220	3.512	2.669	2.414	2.194	1.880	1.799	1.634	1.516	1.376	1.451	1.399
535.0	77.69	72.97	78.11	89.90	136.3	173.7	121.1	187.3	1377	7877	3483	125.5	81.42	69.80	60.73	53.44	47.32	43.30	40.75	37.24	34.82	34.33	33.43	32.76	32.03	32.81	32.24	32.26	32.54	32.83	31.70	29.97	28.98	26.93	24.87	22.83	21.83	19.27	18.03	17.10	15.24	14.44	13.51	13.01	12.30	13.16	14.27	12.92	9.513	7.517	6.848	6.042	5.690	5.751	5.893	5.573	5.837	7.724	11.90	44.56	239.2	829.7	1915	6503	4793	32.34	5.225	3.344	2.642	2.204	1.880	1.810	1.712	1.582	1.512	1.399	1.426
540.0	68.08	66.39	71.34	81.70	101.6	175.3	126.6	115.5	388.4	4659	7499	419.2	76.17	65.25	56.42	45.87	41.95	38.06	36.22	33.40	32.01	30.05	30.01	29.40	28.28	29.05	28.41	29.32	29.41	28.80	28.23	26.41	25.14	23.82	21.78	20.18	19.42	17.21	16.08	15.25	13.59	12.96	12.14	11.40	11.21	10.64	12.06	12.68	10.23	7.270	6.355	5.870	5.451	5.302	5.409	5.651	4.867	5.144	5.902	13.53	56.92	188.8	435.9	2403	6907	1925	27.84	4.299	2.997	2.243	2.048	1.950	1.792	1.560	1.422	1.253	1.301
545.0	71.00	67.32	66.61	70.71	80.26	149.2	136.2	92.94	155.4	1649	9327	1319	73.12	59.17	50.99	42.20	36.82	34.53	31.49	30.05	28.30	26.97	27.00	25.95	25.73	25.37	25.85	25.94	25.47	25.57	25.59	23.63	22.56	20.36	19.07	18.13	17.45	15.84	14.89	13.93	12.39	11.98	10.90	10.41	10.14	9.282	9.806	11.12	10.47	7.505	6.010	5.763	5.088	4.975	4.814	5.167	4.787	4.404	4.378	6.266	15.81	45.77	101.2	557.5	3073	6159	1609	20.36	3.517	2.615	2.101	1.759	1.766	1.565	1.462	1.362	1.471
550.0	66.96	60.13	58.44	62.52	65.23	98.84	144.6	90.76	88.80	445.0	5154	6460	408.2	53.64	43.87	37.12	32.96	29.52	27.52	25.91	24.35	22.99	22.25	21.89	21.90	21.32	21.33	21.50	21.66	21.65	21.54	20.02	19.04	17.84	16.32	15.43	14.41	13.65	12.75	12.10	10.80	10.55	9.645	9.018	8.698	8.183	7.854	8.474	9.339	8.113	6.217	5.037	4.430	4.324	4.227	4.265	4.426	4.333	3.858	4.080	6.268	13.02	25.44	127.7	715.8	2545	4377	2271	116.3	4.455	2.510	1.933	1.686	1.579	1.522	1.419	1.286
555.0	57.65	59.11	57.96	55.55	56.55	65.38	118.1	108.7	68.62	146.5	1356	8099	2725	62.89	38.68	32.31	28.41	25.87	23.54	22.14	20.33	18.83	18.86	18.40	17.79	17.80	17.84	17.64	17.55	17.78	18.07	16.50	16.11	14.43	13.40	12.70	12.17	11.42	10.72	9.917	9.140	8.927	7.840	7.844	7.011	6.900	6.752	6.253	6.764	7.559	6.491	4.920	3.934	3.885	3.689	3.654	3.745	3.851	3.863	3.345	3.776	5.292	7.958	30.92	162.1	570.2	1288	4012	2043	32.17	3.800	2.405	1.906	1.738	1.434	1.333	1.305
560.0	53.39	55.93	50.79	50.26	47.65	49.72	83.31	122.6	63.55	75.32	353.6	4803	6546	135.7	35.84	29.26	25.85	22.73	20.18	19.06	17.95	16.81	15.99	16.39	15.70	15.60	15.22	14.85	14.96	14.93	15.41	13.33	13.67	12.68	11.61	10.79	10.31	10.14	9.331	8.648	7.908	7.529	6.977	6.704	6.389	6.513	5.717	5.474	5.211	6.162	6.281	5.092	3.603	3.518	3.385	3.325	3.230	3.463	3.791	3.345	2.908	3.319	3.889	9.160	38.56	129.7	292.6	1483	4229	1749	25.91	2.998	2.143	1.655	1.351	1.346	1.265
565.0	63.16	52.24	46.73	43.98	41.44	42.09	56.26	120.5	68.44	55.44	118.6	1652	8729	915.5	34.23	26.40	23.27	20.02	18.33	17.27	15.76	14.28	14.48	13.98	14.01	13.62	13.11	13.21	13.29	13.53	13.31	12.52	11.48	10.46	10.33	9.489	9.021	8.399	8.007	7.656	7.080	6.451	6.185	6.406	5.783	5.525	5.105	4.605	4.457	4.650	5.306	5.279	3.658	3.324	2.985	3.156	3.000	3.138	3.165	3.075	2.820	2.691	2.667	4.081	10.75	31.12	67.86	343.2	1884	3956	1272	17.86	2.449	1.764	1.580	1.344	1.239
570.0	57.03	48.38	43.80	39.40	38.27	37.50	43.27	89.08	90.21	48.53	58.68	427.3	5123	5342	235.0	25.01	20.58	17.34	15.73	14.61	13.35	12.81	12.13	11.90	11.81	11.04	11.24	10.90	11.20	11.17	11.24	10.37	9.766	8.972	8.763	8.164	7.574	7.121	6.742	6.351	5.865	5.492	5.317	5.251	4.883	4.847	4.507	4.044	3.872	3.651	4.074	4.725	3.918	3.252	2.682	2.799	2.675	2.618	2.636	2.775	2.825	2.463	2.275	2.573	4.204	8.724	17.05	78.86	439.5	1621	2742	1144	98.72	2.817	1.775	1.448	1.346
575.0	52.57	46.29	43.89	36.34	33.35	30.51	34.45	49.84	101.4	54.59	43.41	125.5	1356	7199	1893	27.57	19.23	15.78	13.59	12.53	11.03	11.03	10.03	9.495	9.454	9.292	9.393	8.985	9.033	9.335	8.986	8.367	8.430	7.614	7.287	6.796	6.558	6.090	5.729	5.353	5.190	5.092	4.357	4.224	4.242	4.034	3.691	3.828	3.158	2.982	2.990	3.613	3.970	3.313	2.680	2.304	2.342	2.169	2.183	2.159	2.450	2.553	2.234	2.190	2.479	3.348	5.443	19.23	99.62	363.5	811.0	2370	1759	30.17	2.634	1.550	1.476
580.0	53.54	49.02	37.58	36.14	28.97	28.13	28.50	33.76	86.16	73.47	38.34	55.26	340.5	4476	5043	85.75	18.32	15.01	13.24	10.98	9.569	9.873	8.825	8.944	8.187	8.087	8.187	7.737	8.041	8.151	7.691	7.284	7.314	6.685	6.404	5.862	5.446	5.276	4.878	4.719	4.349	4.217	3.961	3.798	3.878	3.575	3.244	3.238	3.029	2.849	2.454	2.809	3.328	3.490	2.748	2.235	2.187	2.146	1.961	1.893	2.037	2.349	2.329	2.082	1.948	2.076	2.618	5.794	23.86	82.66	184.5	893.3	2647	1272	22.85	1.872	1.626
585.0	55.92	47.07	37.01	31.91	30.42	28.34	27.97	29.53	60.33	91.39	40.41	38.95	102.2	1576	7029	592.1	18.31	14.08	12.10	10.49	9.417	8.779	8.112	8.002	7.384	7.328	7.027	7.240	7.069	7.270	7.328	6.600	6.104	5.810	5.616	5.282	4.966	4.812	4.331	4.016	4.008	3.670	3.632	3.514	3.261	3.379	2.965	2.944	2.687	2.481	2.282	2.300	2.601	3.111	2.870	2.028	2.078	1.995	1.904	1.836	1.859	1.960	2.361	2.000	1.767	1.789	1.883	2.642	6.687	20.01	42.85	207.2	1171	2464	271.2	13.80	1.785
590.0	52.41	44.50	36.10	31.26	25.58	26.18	23.99	26.62	36.93	86.10	55.35	33.32	47.05	398.0	4259	3712	60.91	13.45	10.85	9.422	8.397	7.885	7.670	7.070	6.743	6.565	6.210	6.261	6.313	6.121	6.233	5.877	5.469	4.945	4.913	4.531	4.067	4.024	3.789	3.549	3.502	3.275	3.116	3.031	2.799	2.877	2.614	2.508	2.473	2.166	1.977	1.905	2.069	2.519	2.776	2.420	1.972	1.828	1.680	1.691	1.736	1.652	1.859	2.045	1.823	1.608	1.525	1.811	2.703	5.785	10.86	47.73	272.5	997.9	1557	887.4	20.33
595.0	51.23	40.74	36.51	30.47	21.32	24.41	23.20	22.11	27.84	55.51	74.84	33.28	32.45	107.9	1132	5384	660.3	14.62	10.64	9.181	7.426	6.793	7.023	6.208	6.111	5.477	5.252	5.493	5.201	5.031	5.114	4.929	4.677	4.423	4.157	3.788	3.775	3.544	3.211	3.053	2.962	2.722	2.652	2.750	2.436	2.404	2.269	2.326	2.252	1.912	1.811	1.855	1.755	1.848	2.214	2.428	1.980	1.745	1.717	1.564	1.521	1.403	1.532	1.599	1.858	1.647	1.440	1.475	1.764	2.378	3.613	11.86	62.07	223.9	461.4	1462	1145
600.0	54.80	39.98	33.31	29.46	22.88	20.14	21.43	21.94	24.32	38.55	80.93	39.85	28.22	41.82	277.9	3559	3227	51.25	10.25	8.412	7.162	6.566	6.007	5.558	5.228	5.237	4.883	5.040	4.741	4.832	4.550	4.197	4.115	3.894	3.478	3.355	3.388	3.289	2.852	2.799	2.724	2.595	2.401	2.556	2.328	2.208	2.059	2.046	1.985	1.760	1.675	1.679	1.602	1.547	1.830	2.255	2.158	1.918	1.510	1.465	1.407	1.392	1.504	1.429	1.650	1.738	1.521	1.404	1.356	1.609	1.841	3.734	14.93	51.16	105.2	531.7	1580
605.0	47.43	42.05	37.43	28.84	21.21	20.36	20.14	21.47	22.16	29.41	71.15	54.41	26.99	28.83	78.58	1303	4966	373.3	10.70	7.952	6.948	6.168	5.520	5.167	4.720	4.568	4.294	4.584	4.087	4.167	4.283	3.922	3.607	3.503	3.420	3.093	3.015	2.919	2.621	2.416	2.419	2.332	2.372	2.375	2.178	1.924	1.856	1.875	1.759	1.661	1.486	1.448	1.589	1.493	1.495	1.951	2.143	1.921	1.575	1.366	1.408	1.408	1.503	1.339	1.433	1.600	1.704	1.333	1.487	1.335	1.415	1.817	4.470	12.51	24.75	123.1	676.6
610.0	46.23	40.32	33.69	25.94	21.11	21.17	20.22	21.42	23.90	28.09	48.80	71.17	33.60	25.84	34.62	326.0	3272	2554	42.13	7.970	6.433	5.593	5.191	4.713	4.406	4.215	3.973	3.898	3.955	3.813	3.593	3.543	3.389	3.200	3.012	2.774	2.654	2.552	2.386	2.169	2.124	2.175	2.050	1.990	1.879	1.831	1.776	1.719	1.653	1.399	1.349	1.340	1.332	1.331	1.327	1.507	1.811	1.792	1.561	1.375	1.343	1.231	1.328	1.311	1.318	1.378	1.567	1.531	1.368	1.234	1.402	1.372	1.992	3.685	6.558	28.63	157.0
615.0	50.37	42.09	37.36	26.98	19.41	19.54	19.02	21.36	25.02	26.00	35.68	66.87	47.75	25.70	24.51	85.60	901.8	4056	499.0	8.863	6.492	5.754	5.265	4.253	4.034	3.643	3.517	3.532	3.378	3.386	3.228	3.311	3.124	2.810	2.591	2.557	2.294	2.415	2.057	2.036	1.938	1.945	1.886	1.719	1.670	1.558	1.618	1.597	1.469	1.340	1.265	1.281	1.112	1.182	1.263	1.276	1.428	1.600	1.626	1.264	1.317	1.131	1.264	1.304	1.227	1.134	1.308	1.449	1.472	1.304	1.232	1.121	1.364	1.713	2.396	7.280	35.90
620.0	46.02	40.77	35.11	27.22	18.83	19.24	19.69	19.35	22.43	26.50	31.91	51.76	57.00	26.48	20.77	31.78	223.1	2890	2265	28.63	6.667	5.647	5.193	4.011	3.619	3.912	3.396	3.226	3.205	3.105	3.027	3.129	2.962	2.578	2.574	2.281	2.206	2.257	1.972	1.848	1.769	1.699	1.709	1.532	1.567	1.558	1.539	1.395	1.341	1.262	1.133	1.217	1.174	1.184	1.187	1.181	1.244	1.424	1.540	1.474	1.224	1.197	1.126	1.183	1.188	1.156	1.273	1.297	1.387	1.411	1.287	1.168	1.149	1.257	1.339	2.427	9.014
625.0	53.88	41.85	37.37	27.73	18.50	17.59	18.55	19.20	23.45	26.64	28.81	39.54	62.73	29.80	20.72	19.35	61.55	1127	3778	218.6	7.870	5.419	4.651	4.136	3.469	3.461	3.249	3.133	3.353	3.045	2.876	2.880	2.645	2.421	2.489	2.194	2.125	2.044	1.764	1.769	1.701	1.640	1.530	1.429	1.413	1.577	1.334	1.363	1.302	1.194	1.125	1.029	1.265	1.177	1.133	1.120	1.209	1.299	1.423	1.564	1.261	1.099	1.183	1.110	1.177	1.208	1.131	1.148	1.215	1.375	1.170	1.072	1.100	1.071	1.127	1.331	2.826
630.0	46.74	39.14	34.19	24.82	19.12	16.74	18.01	19.44	22.16	24.72	27.34	33.22	54.56	39.76	20.49	15.74	23.56	282.2	2741	1814	28.44	5.833	4.742	4.048	3.431	3.354	3.009	2.949	2.971	2.791	2.798	2.600	2.364	2.274	2.270	2.062	1.936	1.788	1.665	1.575	1.523	1.567	1.492	1.443	1.433	1.483	1.239	1.318	1.246	1.117	1.091	0.998	1.070	1.001	1.086	1.073	1.121	1.083	1.239	1.352	1.237	1.107	1.123	1.147	1.175	1.089	1.023	1.012	1.096	1.235	1.227	1.087	1.066	0.949	0.991	1.030	1.434
635.0	46.89	38.27	34.72	25.20	18.09	16.32	16.90	19.74	21.57	25.70	27.86	29.72	39.31	49.95	22.78	14.99	14.76	70.90	788.9	3242	364.6	6.339	4.683	4.353	3.442	3.180	3.106	2.772	2.771	2.593	2.650	2.464	2.229	1.970	2.121	1.969	1.840	1.637	1.556	1.647	1.523	1.452	1.564	1.545	1.336	1.302	1.262	1.215	1.112	1.146	0.944	0.946	1.029	0.992	1.033	0.967	1.047	0.997	1.052	1.189	1.140	1.152	1.120	0.997	1.033	1.036	0.965	1.023	1.003	1.126	1.223	1.218	1.094	0.919	0.938	0.943	0.994
640.0	45.06	39.77	35.33	22.56	18.79	17.36	15.95	19.56	20.38	23.26	27.28	29.12	31.98	47.94	27.90	14.49	12.16	23.19	193.0	2504	1558	16.75	5.096	4.448	3.646	2.941	3.022	2.644	2.521	2.674	2.466	2.209	2.280	1.872	2.128	1.868	1.662	1.605	1.422	1.520	1.440	1.423	1.469	1.364	1.291	1.321	1.165	1.272	1.022	0.976	0.909	0.918	0.998	0.992	1.026	0.954	1.020	1.004	1.042	1.054	1.086	1.057	1.026	0.979	1.011	1.066	0.920	0.982	0.930	0.970	1.048	1.175	1.108	0.894	0.965	0.972	0.888
645.0	47.75	40.64	33.02	24.28	18.07	15.94	16.04	19.21	20.26	22.83	25.61	28.03	29.67	38.87	34.77	14.37	11.63	12.40	49.89	1064	2797	59.88	5.718	4.453	3.557	3.261	2.686	2.544	2.510	2.625	2.326	2.174	2.139	1.966	2.071	1.732	1.518	1.568	1.555	1.445	1.321	1.368	1.351	1.244	1.316	1.143	1.105	1.135	1.016	0.968	0.885	0.954	0.971	0.984	0.941	0.962	0.962	1.069	0.978	0.998	1.062	1.154	1.065	1.017	0.921	1.004	0.997	1.047	0.962	0.936	0.989	0.974	1.102	1.084	0.870	0.989	0.899
650.0	47.48	38.99	31.50	23.10	18.28	17.09	14.90	20.32	20.28	22.39	25.21	26.68	28.14	31.25	38.42	16.33	10.58	10.07	17.44	290.8	2804	461.0	7.351	4.242	3.813	3.264	2.849	2.544	2.537	2.408	2.346	2.238	2.064	1.768	2.030	1.792	1.528	1.695	1.541	1.299	1.232	1.373	1.276	1.197	1.211	1.165	1.119	1.111	1.077	0.939	0.887	0.977	0.890	0.953	0.956	0.925	0.970	1.115	0.919	0.984	1.010	1.010	1.047	1.038	0.897	0.974	0.999	0.983	0.978	0.902	0.968	0.840	0.973	1.048	0.906	0.917	0.846
