Sample:	'1
File name:	y2025051310 双河村入杏花河闸口.FD3
Run date:	'12:19:09, 05/14/2025
Operator:	Administrator
Comment:	'

Instrument
Model:	F-2700 FL Spectrophotometer
Serial number:	23B8-004
ROM Version:	4J14000 07

Instrument parameters
Measurement type:	3-D scan
Data mode:	Fluorescence
EX  Start WL:	220.0 nm
EX  End WL:	600.0 nm
EX Sampling interval:	5.0 nm
EM  Start WL:	230.0 nm
EM  End WL:	650.0 nm
EM Sampling interval:	5.0 nm
Scan speed:	12000 nm/min
EX Slit:	5.0 nm
EM Slit:	5.0 nm
PMT Voltage:	700 V
Response:	Auto 
Corrected spectra:	Off
Contour interval:	50.000

Peak integration
Integration method:	Rectangular
Sensitivity:	1
Threshold:	1.000

Peaks
No.	ApexEX/EM(nm)	Height(Data)
1	225.0/300.0	1286
2	225.0/580.0	151.6
3	230.0/340.0	1773
4	230.0/500.0	361.5
5	245.0/535.0	195.3
6	250.0/550.0	158.5
7	255.0/285.0	460.3
8	255.0/565.0	128.4
9	260.0/290.0	543.4
10	260.0/575.0	116.3
11	265.0/295.0	768.7
12	265.0/585.0	106.3
13	270.0/300.0	1041
14	270.0/600.0	98.88
15	275.0/310.0	1155
16	275.0/340.0	1152
17	275.0/610.0	86.40
18	280.0/315.0	1120
19	280.0/625.0	74.35
20	285.0/320.0	1103
21	285.0/640.0	57.74
22	320.0/365.0	461.4
23	460.0/340.0	5.054
24	505.0/275.0	2.978
25	510.0/280.0	3.235
26	520.0/285.0	3.393
27	530.0/290.0	3.659
28	545.0/300.0	5.508
29	550.0/305.0	6.498
30	560.0/310.0	6.021
31	565.0/335.0	5.569
32	570.0/315.0	6.321
33	580.0/320.0	6.487

Data points
	220.0	225.0	230.0	235.0	240.0	245.0	250.0	255.0	260.0	265.0	270.0	275.0	280.0	285.0	290.0	295.0	300.0	305.0	310.0	315.0	320.0	325.0	330.0	335.0	340.0	345.0	350.0	355.0	360.0	365.0	370.0	375.0	380.0	385.0	390.0	395.0	400.0	405.0	410.0	415.0	420.0	425.0	430.0	435.0	440.0	445.0	450.0	455.0	460.0	465.0	470.0	475.0	480.0	485.0	490.0	495.0	500.0	505.0	510.0	515.0	520.0	525.0	530.0	535.0	540.0	545.0	550.0	555.0	560.0	565.0	570.0	575.0	580.0	585.0	590.0	595.0	600.0
230.0	79.54	1144	3145	1155	59.46	12.18	10.39	8.012	7.232	6.512	5.740	5.030	4.493	3.654	3.240	2.573	2.463	2.244	1.929	1.827	1.626	1.561	1.500	1.457	1.341	1.238	1.155	1.070	1.155	1.139	1.046	0.955	0.939	0.882	0.850	0.754	0.757	0.747	0.717	0.718	0.707	0.790	0.836	0.690	0.642	0.640	1.337	5.511	10.48	7.909	3.538	1.019	0.540	0.533	0.492	0.507	0.528	0.572	0.540	0.539	0.536	0.530	0.540	0.525	0.535	0.524	0.561	0.532	0.528	0.547	0.545	0.528	0.560	0.552	0.591	0.584	0.587
235.0	139.7	326.4	1822	3217	625.2	84.09	10.92	8.285	8.199	6.426	6.796	5.073	4.356	3.996	3.346	2.742	2.484	2.282	2.017	1.779	1.667	1.723	1.465	1.492	1.362	1.241	1.262	1.191	1.067	1.164	1.028	0.922	0.982	0.890	0.821	0.792	0.789	0.765	0.669	0.693	0.688	0.737	0.796	0.939	0.860	0.683	0.761	1.759	3.999	6.903	10.61	11.51	5.915	1.598	0.516	0.508	0.537	0.535	0.545	0.639	0.608	0.520	0.597	0.544	0.481	0.531	0.588	0.554	0.591	0.515	0.579	0.580	0.601	0.525	0.587	0.618	0.578
240.0	176.1	180.4	538.4	2545	3409	498.1	41.89	9.961	7.786	7.226	7.038	5.855	4.549	4.091	3.804	3.151	2.498	2.234	1.982	2.023	1.585	1.659	1.357	1.561	1.291	1.282	1.240	1.271	1.059	1.130	1.109	0.923	0.887	0.915	0.888	0.720	0.775	0.784	0.753	0.701	0.705	0.645	0.756	0.813	0.940	0.956	0.771	0.891	1.316	2.248	5.609	13.20	16.76	12.10	4.540	1.104	0.549	0.555	0.544	0.608	0.572	0.508	0.551	0.575	0.541	0.562	0.654	0.602	0.552	0.467	0.613	0.572	0.685	0.495	0.579	0.578	0.557
245.0	138.4	207.9	200.2	854.8	3549	3434	367.6	20.23	9.278	8.672	6.548	5.996	4.984	4.214	3.718	3.240	2.393	2.266	2.120	2.200	1.856	1.697	1.465	1.525	1.354	1.274	1.263	1.202	1.173	1.197	1.124	1.036	0.926	0.984	0.884	0.721	0.759	0.766	0.726	0.735	0.700	0.740	0.674	0.684	0.738	0.909	1.000	0.929	0.813	0.905	1.628	4.484	10.91	19.05	19.83	11.27	3.354	0.731	0.597	0.583	0.585	0.487	0.573	0.555	0.589	0.576	0.587	0.565	0.585	0.554	0.565	0.606	0.558	0.563	0.597	0.571	0.552
250.0	79.38	149.6	231.2	279.4	1117	3312	4077	1301	84.18	10.09	7.892	7.604	5.795	4.746	3.997	3.324	2.654	2.310	2.371	2.151	1.827	1.662	1.529	1.537	1.455	1.307	1.296	1.262	1.222	1.228	1.138	1.120	0.951	0.965	0.930	0.796	0.793	0.784	0.763	0.749	0.704	0.672	0.720	0.729	0.694	0.666	0.790	1.022	1.100	0.977	0.941	1.512	3.009	6.208	11.51	17.79	22.54	19.25	11.31	3.602	0.888	0.590	0.601	0.574	0.580	0.540	0.585	0.526	0.533	0.545	0.544	0.574	0.516	0.594	0.548	0.561	0.563
255.0	62.31	67.76	158.0	290.1	332.9	838.8	3233	6478	1800	85.89	10.58	8.784	6.370	5.347	4.243	3.370	3.033	2.576	2.695	1.893	1.831	1.714	1.577	1.510	1.632	1.205	1.397	1.391	1.208	1.224	1.158	0.986	1.009	0.940	0.842	0.819	0.782	0.819	0.666	0.771	0.773	0.681	0.684	0.728	0.696	0.660	0.664	0.747	0.763	0.970	1.275	1.627	1.342	1.872	3.002	4.592	8.093	19.43	33.89	29.26	16.92	3.919	0.793	0.603	0.569	0.558	0.598	0.579	0.620	0.583	0.589	0.594	0.598	0.548	0.556	0.576	0.613
260.0	63.56	50.10	71.96	247.4	279.9	237.1	990.7	5371	7166	1311	37.77	10.21	8.072	6.242	4.886	3.341	3.230	2.661	2.778	2.209	2.015	1.779	1.551	1.745	1.638	1.354	1.292	1.411	1.144	1.273	1.242	1.048	1.004	0.945	0.923	0.814	0.767	0.852	0.771	0.742	0.750	0.730	0.749	0.678	0.667	0.708	0.663	0.577	0.548	0.630	0.962	1.722	1.819	1.349	1.153	1.427	2.373	5.598	15.12	32.00	45.82	27.38	13.34	2.117	0.589	0.620	0.549	0.576	0.641	0.609	0.585	0.581	0.590	0.625	0.577	0.624	0.647
265.0	60.36	44.03	40.96	116.6	305.2	211.2	259.4	1837	7667	7080	223.0	17.65	10.14	7.285	5.580	4.083	3.679	2.997	2.812	2.466	2.022	1.951	1.804	1.804	1.560	1.422	1.373	1.308	1.391	1.220	1.272	1.140	0.991	1.051	0.983	0.848	0.898	0.816	0.753	0.716	0.737	0.736	0.752	0.699	0.764	0.673	0.649	0.568	0.545	0.510	0.598	1.104	1.710	1.994	1.504	0.959	1.032	1.760	4.161	9.547	24.83	45.33	54.72	24.92	8.919	1.038	0.658	0.633	0.596	0.605	0.612	0.604	0.558	0.690	0.611	0.601	0.695
270.0	88.51	71.66	57.74	60.38	153.3	307.9	243.3	461.4	2510	7363	8606	829.9	53.07	10.46	7.295	5.450	4.062	3.430	2.852	2.585	2.332	2.168	1.936	1.807	1.668	1.556	1.482	1.394	1.329	1.458	1.259	1.214	1.164	1.112	0.944	0.880	0.916	0.890	0.842	0.778	0.795	0.768	0.865	0.767	0.799	0.683	0.681	0.685	0.634	0.567	0.543	0.711	0.906	1.230	1.757	2.056	1.792	1.320	1.514	2.718	6.277	13.45	26.94	40.06	40.04	43.32	16.35	6.971	1.239	0.689	0.616	0.661	0.616	0.661	0.625	0.622	0.634
275.0	214.6	208.5	183.8	98.20	77.14	160.3	404.2	300.0	617.2	1896	7032	9999.9	1163	45.55	10.44	7.163	5.350	4.593	3.384	3.128	2.728	2.104	2.064	1.891	1.902	1.659	1.648	1.578	1.281	1.418	1.324	1.157	1.117	1.154	1.099	1.092	0.999	1.003	0.962	0.879	0.825	0.959	0.968	0.943	1.021	1.010	1.005	1.045	0.954	0.759	0.703	0.759	0.721	0.773	0.954	1.248	2.167	2.978	2.068	1.539	2.107	3.599	6.685	9.865	13.68	34.07	64.40	72.21	25.93	7.392	0.846	0.724	0.697	0.653	0.659	0.594	0.633
280.0	412.7	436.9	363.2	199.3	92.16	88.15	290.5	415.1	285.3	522.9	2169	9999.9	9732	781.1	21.54	9.348	6.765	5.254	3.915	3.367	3.209	2.613	2.319	2.115	2.047	1.648	1.734	1.624	1.354	1.168	1.334	1.254	1.211	1.040	1.298	1.313	1.301	1.302	1.145	1.003	1.035	1.044	1.133	1.141	1.389	1.448	1.509	1.593	1.398	1.058	0.970	0.946	0.761	0.808	0.847	0.932	1.415	2.274	3.235	2.816	1.618	1.602	2.283	3.121	4.002	9.165	23.85	55.87	77.46	33.88	20.12	3.488	0.782	0.795	0.680	0.725	0.716
285.0	625.6	671.8	571.2	322.7	139.1	89.66	157.8	460.3	353.4	278.0	650.6	3434	9999.9	7547	116.8	13.50	8.375	6.309	4.992	3.897	3.263	2.506	2.481	2.060	2.033	1.742	1.932	1.745	1.562	1.356	1.181	1.353	1.268	1.186	1.413	1.459	1.639	1.689	1.433	1.165	1.181	1.411	1.396	1.415	1.735	1.927	1.988	2.101	2.030	1.479	1.232	1.245	0.924	0.857	0.820	0.946	0.989	1.245	2.281	3.254	3.393	2.220	1.695	1.892	2.174	3.167	6.453	15.43	34.33	60.94	82.96	31.30	14.19	1.518	0.854	0.756	0.730
290.0	880.0	996.7	852.5	490.4	219.9	133.1	140.4	277.9	543.4	516.6	426.7	1014	3496	9706	8852	444.1	28.08	8.702	6.008	4.735	3.968	3.060	2.729	2.299	2.217	1.957	1.912	1.735	1.655	1.518	1.419	1.448	1.350	1.430	1.673	1.831	2.068	1.963	1.704	1.437	1.491	1.550	1.611	1.850	2.129	2.475	2.610	2.923	2.655	2.169	1.783	1.622	1.281	1.069	0.995	0.965	1.021	1.127	1.410	1.906	2.801	3.572	3.659	3.027	2.334	2.187	2.912	4.990	9.112	17.03	33.47	47.07	63.77	53.38	20.41	10.33	1.912
295.0	1026	1200	1050	620.9	307.7	192.9	190.1	238.3	395.1	768.7	734.6	588.2	1040	2514	7529	9999.9	636.9	23.31	8.620	6.181	4.859	3.549	3.281	2.813	2.256	2.174	2.030	1.936	1.863	1.706	1.628	1.429	1.451	1.590	1.856	2.095	2.272	2.282	1.827	1.804	1.637	1.893	2.022	1.980	2.377	2.834	3.027	3.293	3.103	2.501	2.139	1.975	1.581	1.308	1.266	1.201	1.367	1.248	1.443	1.704	2.037	2.422	3.260	4.620	4.719	3.598	2.679	3.086	3.893	5.450	8.893	11.87	17.53	31.00	63.51	84.62	32.27
300.0	1111	1286	1121	679.4	362.2	248.3	240.1	282.3	389.6	635.6	1041	720.8	583.9	790.4	2254	9894	5792	87.20	14.32	7.813	5.173	4.132	3.806	3.170	2.555	2.544	2.050	1.987	2.139	1.752	1.572	1.480	1.485	1.686	1.825	2.138	2.405	2.325	2.092	1.819	1.839	1.804	1.928	2.018	2.423	2.928	3.290	3.368	3.343	2.754	2.297	2.215	1.706	1.562	1.511	1.478	1.530	1.585	1.676	1.869	2.048	2.353	2.619	3.537	4.884	5.508	4.346	3.549	3.031	3.267	3.713	4.242	5.333	8.321	20.19	49.36	79.46
305.0	1071	1267	1140	727.2	390.8	307.4	300.7	372.3	463.9	620.0	1001	1113	646.2	499.2	711.3	3307	9999.9	4684	69.12	10.29	6.806	5.376	4.107	3.332	3.097	2.586	2.208	2.090	2.053	1.635	1.693	1.520	1.515	1.630	1.845	2.056	2.240	2.208	2.137	1.974	1.777	1.902	2.079	2.102	2.354	3.045	3.298	3.383	3.198	2.885	2.509	2.295	1.928	1.659	1.633	1.591	1.830	1.855	1.972	2.117	2.345	2.632	2.782	3.326	3.867	5.145	6.498	5.845	4.188	3.554	3.180	3.158	3.136	3.655	6.017	13.00	29.45
310.0	1025	1229	1091	719.5	426.8	348.3	370.2	445.7	538.9	679.1	885.0	1155	1039	609.6	453.5	917.1	3343	7762	6766	302.8	19.81	7.242	5.066	3.844	3.304	2.877	2.317	2.272	2.112	1.910	1.845	1.541	1.600	1.576	1.869	2.038	2.288	2.251	2.041	1.954	1.861	1.849	2.021	2.020	2.362	3.000	3.124	3.310	3.310	2.841	2.478	2.379	2.022	1.757	1.806	1.820	1.926	2.125	2.255	2.519	2.783	2.954	3.174	3.614	4.139	4.329	5.045	5.642	6.021	5.482	4.387	3.428	3.078	2.854	3.237	4.367	8.141
315.0	1013	1177	1080	718.4	475.1	393.5	425.5	505.0	611.8	750.9	899.3	1016	1120	966.3	515.1	433.9	906.4	1974	6222	8804	459.4	17.00	7.130	5.203	4.237	3.428	2.707	2.602	2.260	2.173	1.862	1.738	1.747	1.624	1.814	2.003	2.255	2.126	1.892	1.946	1.834	1.932	2.209	2.040	2.446	2.694	3.045	3.281	3.275	2.740	2.363	2.381	2.096	1.971	2.024	2.010	2.046	2.324	2.376	2.778	3.038	3.192	3.587	3.868	4.265	4.637	4.529	4.918	5.006	5.448	6.321	5.843	4.321	3.474	2.655	2.808	3.386
320.0	1032	1203	1116	748.2	505.3	427.4	468.7	540.1	659.6	801.4	942.9	1022	1033	1103	735.3	393.3	407.9	566.9	1834	8176	4225	66.13	11.31	6.329	5.002	3.807	3.145	2.712	2.465	2.300	1.763	1.937	1.770	1.679	1.836	1.750	2.224	1.986	1.957	1.891	1.721	1.922	2.053	2.092	2.471	2.803	3.238	3.445	2.998	2.781	2.412	2.597	2.222	2.228	2.260	2.124	2.327	2.425	2.715	2.969	3.254	3.312	3.734	4.341	4.493	4.600	4.674	5.003	5.141	5.027	5.259	6.327	6.487	4.965	3.301	2.737	2.474
325.0	1073	1362	1284	857.5	573.3	469.3	501.8	575.9	693.3	836.7	980.1	1063	1032	1016	953.9	497.0	340.7	280.7	505.4	2734	8395	3588	53.32	8.561	6.459	4.326	3.644	2.712	2.778	2.516	1.866	1.948	1.633	1.583	1.814	1.864	2.059	2.118	2.020	1.769	1.892	1.922	2.000	2.184	2.728	3.171	3.391	3.758	3.629	3.036	2.761	2.628	2.358	2.306	2.345	2.262	2.472	2.567	2.764	3.218	3.176	3.557	3.916	4.329	4.780	5.005	4.759	5.353	4.982	5.108	5.100	5.362	6.029	5.895	4.848	3.630	2.850
330.0	1161	1495	1487	1086	701.4	540.2	554.0	610.8	728.2	881.3	1030	1106	1077	971.5	895.7	729.4	440.5	264.9	240.8	705.2	2758	6183	5445	243.1	16.99	6.119	4.351	3.383	3.091	2.616	2.236	1.993	1.789	1.709	1.680	1.777	1.911	1.910	1.857	1.886	1.917	1.919	1.981	2.300	2.735	3.144	3.720	4.197	4.350	3.881	3.303	3.453	2.952	2.731	2.655	2.583	2.644	2.784	3.038	3.247	3.404	3.619	4.165	4.512	4.737	4.939	5.174	5.222	5.285	5.372	5.270	5.188	5.121	5.272	5.076	5.029	4.481
335.0	1197	1589	1652	1273	852.7	652.4	603.7	645.5	752.2	914.0	1046	1146	1118	1012	844.1	723.1	662.3	360.2	227.2	281.3	693.8	1561	5194	7420	387.8	15.45	6.218	4.608	3.758	3.109	2.861	2.420	2.150	1.789	1.868	1.964	1.851	2.012	1.955	1.738	1.871	1.958	2.025	2.436	2.622	3.407	3.814	4.562	4.669	4.226	3.845	4.016	3.590	3.293	2.721	2.866	2.877	3.002	3.042	3.518	3.643	3.803	4.360	4.478	4.783	5.159	5.252	5.346	5.396	5.569	5.395	5.334	5.177	5.101	4.549	4.545	4.948
340.0	1237	1645	1773	1371	951.3	726.1	645.0	676.4	772.0	917.5	1061	1152	1135	1026	855.7	681.2	678.7	514.2	265.4	211.7	252.5	413.8	1522	6872	6181	55.83	9.445	5.787	4.102	3.464	2.837	2.523	2.221	1.900	1.961	2.018	1.792	1.973	2.081	1.804	1.757	1.909	2.096	2.527	2.949	3.521	3.929	4.697	5.054	4.439	4.073	4.211	3.941	3.473	3.184	3.163	3.102	3.010	3.343	3.441	3.465	3.943	4.322	4.476	4.607	5.031	5.099	5.433	5.657	5.525	5.761	5.371	5.320	4.958	4.469	4.364	4.483
345.0	1196	1676	1768	1406	1003	775.4	670.6	698.5	790.3	922.9	1048	1133	1110	1016	855.7	676.5	597.3	591.4	374.7	223.9	176.6	176.5	401.1	2241	7593	3139	48.21	7.638	4.896	3.811	3.159	2.461	2.371	2.080	1.866	1.868	1.738	2.028	1.905	1.737	1.723	1.953	2.139	2.374	2.801	3.414	3.859	4.829	5.008	4.295	4.140	4.608	4.172	3.531	3.416	3.191	3.213	3.170	3.251	3.473	3.568	3.982	4.289	4.290	5.015	4.933	5.240	5.278	5.552	5.440	5.831	5.470	5.188	5.072	4.774	4.320	4.410
350.0	1133	1542	1698	1408	1062	821.5	714.8	724.4	807.3	904.9	1014	1080	1064	989.4	856.2	684.5	572.1	522.4	492.3	336.6	205.2	159.3	175.8	564.8	2386	5031	4627	982.2	16.29	5.044	3.881	3.024	2.492	2.317	1.968	1.856	1.786	1.800	1.853	1.776	1.748	1.860	2.074	2.402	2.701	3.229	3.612	4.649	4.791	4.311	4.137	4.439	4.261	3.922	3.450	3.279	3.254	3.227	3.438	3.447	3.623	4.017	4.285	4.445	4.738	4.849	4.920	4.954	5.250	5.381	5.398	5.369	5.265	5.008	4.825	4.480	4.298
355.0	1065	1422	1544	1369	1071	863.8	762.0	760.3	825.0	908.0	993.7	1038	1019	958.3	849.1	706.2	596.3	505.9	460.7	471.9	310.2	199.0	161.3	214.2	591.3	1243	3984	6468	378.0	17.00	5.108	3.773	2.773	2.474	2.194	1.874	1.793	1.721	1.863	1.752	1.909	1.839	2.198	2.255	2.582	3.204	3.426	4.281	4.348	4.081	3.878	4.375	4.218	3.958	3.741	3.413	3.391	3.574	3.663	3.612	3.900	4.350	4.471	4.413	4.768	4.745	4.630	4.666	4.915	5.263	5.285	5.154	5.199	4.918	4.954	4.319	4.348
360.0	1029	1335	1435	1323	1084	882.1	775.0	783.9	841.0	905.7	979.5	1000	985.4	936.5	838.4	715.7	611.8	525.3	451.0	466.5	423.4	259.9	188.8	157.7	209.9	332.2	1120	5381	5694	314.5	9.650	4.866	3.410	2.601	2.527	2.252	1.991	1.833	1.733	1.753	1.964	1.869	1.944	2.202	2.462	3.032	3.288	4.093	4.108	3.807	3.662	4.432	4.149	3.947	3.607	3.608	3.607	3.717	3.611	3.697	3.866	4.170	4.449	4.571	4.681	4.788	4.828	4.696	4.669	4.971	5.034	4.789	5.068	5.001	4.862	4.556	4.384
365.0	964.7	1226	1366	1280	1092	914.1	813.4	801.0	841.9	912.2	960.9	975.3	966.8	920.5	831.4	713.7	629.7	550.1	476.7	440.5	461.4	363.0	226.3	170.7	147.2	145.1	300.7	1665	6271	3099	47.91	6.807	4.125	3.173	2.649	2.121	2.115	1.954	1.712	1.865	1.834	2.025	1.867	2.126	2.409	2.926	3.098	3.826	3.904	3.434	3.620	4.337	3.716	3.943	3.794	3.522	3.651	3.741	3.794	3.885	4.161	4.281	4.584	4.404	4.697	4.586	4.680	4.786	4.252	4.759	5.051	5.042	4.875	4.926	4.678	4.798	4.372
370.0	906.1	1169	1288	1220	1060	920.5	843.2	814.3	852.8	908.1	938.4	948.7	930.0	881.9	806.6	716.6	650.0	580.1	513.7	459.8	431.8	428.1	339.8	224.8	168.4	132.4	139.7	424.0	1874	4386	4423	1032	16.75	4.623	3.244	2.501	2.250	2.143	1.891	1.840	1.900	1.958	1.965	2.003	2.360	2.817	2.908	3.579	3.594	3.423	3.472	4.286	3.923	3.894	3.850	3.564	3.928	3.848	3.827	3.884	4.109	4.178	4.189	4.214	4.376	4.490	4.515	4.527	4.575	4.868	4.689	4.785	4.806	4.829	4.578	4.728	4.734
375.0	889.1	1080	1187	1182	1039	931.3	841.1	828.0	858.7	894.5	911.9	925.6	897.7	851.2	787.9	707.7	654.6	599.1	545.1	498.5	440.5	413.9	421.9	325.5	211.7	161.7	131.5	166.5	465.6	1063	3375	6064	344.2	18.32	4.276	3.171	2.764	2.181	2.115	1.941	1.881	1.976	1.943	2.057	2.263	2.741	2.915	3.306	3.319	3.158	3.418	3.926	3.860	4.077	3.892	3.695	3.876	3.738	4.022	4.039	4.109	4.044	4.496	4.316	4.263	4.321	4.488	4.709	4.706	4.609	4.599	4.504	4.577	4.669	4.434	4.753	4.672
380.0	818.6	1074	1142	1137	1027	931.5	845.2	830.4	859.0	870.6	886.3	904.5	876.6	825.5	769.2	703.4	658.7	611.9	559.7	513.0	459.6	416.8	408.3	399.1	268.2	189.9	148.0	127.4	168.0	281.9	918.1	4523	5197	293.9	9.921	3.901	3.169	2.519	2.220	2.019	2.013	2.118	1.904	2.171	2.316	2.516	2.799	3.207	3.232	3.225	3.280	4.000	4.002	4.047	3.938	3.703	4.055	3.691	3.962	4.046	3.880	4.107	4.149	4.256	4.406	4.313	4.332	4.380	4.465	4.086	4.438	4.473	4.577	4.612	4.584	4.597	4.503
385.0	830.9	1008	1139	1090	991.7	930.6	848.2	825.1	848.0	856.5	871.1	868.9	849.8	805.9	756.9	697.1	653.0	614.4	571.4	531.0	479.8	434.0	397.0	402.8	349.6	232.5	173.8	136.4	118.0	119.8	246.3	1314	4946	2684	41.58	6.350	3.647	2.875	2.493	2.078	2.000	2.025	1.938	2.128	2.279	2.564	2.586	3.106	3.143	3.180	3.069	3.693	3.796	3.876	3.660	3.746	3.921	3.832	3.768	4.104	4.029	4.029	4.194	4.172	4.300	4.251	4.274	4.365	4.406	4.194	4.262	4.334	4.306	4.415	4.565	4.611	4.580
390.0	794.2	934.5	1073	1040	972.5	908.7	847.6	817.9	831.8	832.8	846.7	835.4	822.0	779.5	733.5	681.7	648.4	611.9	574.4	540.1	494.1	452.5	410.0	384.9	375.4	317.8	223.3	168.5	132.7	107.3	111.6	333.4	1387	3199	3400	919.9	16.25	3.981	2.944	2.522	2.067	2.132	2.093	2.004	2.214	2.503	2.578	2.935	3.096	3.002	3.092	3.770	3.930	3.854	3.753	3.860	3.923	3.920	4.017	3.845	3.887	3.847	4.151	4.202	4.197	4.085	4.133	4.004	4.286	4.062	4.133	4.451	4.538	4.364	4.478	4.316	4.743
395.0	762.0	910.5	1011	1006	966.2	897.1	839.0	820.0	810.4	821.6	828.5	814.3	788.8	756.2	720.2	663.6	632.7	603.1	575.7	541.6	504.5	468.0	430.3	393.5	363.6	356.7	302.5	214.9	168.2	131.6	105.1	129.7	347.3	759.6	2149	4616	1412	20.02	4.181	3.005	2.340	2.224	2.239	2.164	2.318	2.350	2.621	2.925	3.159	2.847	2.997	3.704	3.668	3.812	3.702	3.809	3.650	3.710	3.934	3.742	3.724	3.743	4.056	3.939	4.025	4.086	3.665	3.866	3.776	4.082	4.006	4.423	4.319	4.593	4.101	4.474	4.544
400.0	767.3	881.2	967.1	978.6	969.0	888.3	841.1	804.9	805.1	806.5	810.7	798.4	780.9	744.8	704.9	653.1	618.2	596.7	569.5	535.4	506.8	477.3	444.4	404.8	369.8	348.9	348.4	269.4	195.8	156.5	121.8	100.8	127.5	203.3	559.0	2936	4408	274.2	12.63	3.964	2.721	2.445	2.212	2.185	2.255	2.393	2.493	2.909	3.054	2.843	2.894	3.725	3.740	3.875	3.627	3.467	3.782	3.687	3.717	3.825	3.830	3.761	3.914	4.001	4.157	3.957	3.749	3.720	3.788	4.223	4.019	4.174	4.098	4.044	4.192	4.336	4.117
405.0	731.9	870.5	952.7	946.2	930.9	896.4	832.2	801.2	796.6	794.6	793.4	783.7	766.4	727.5	685.6	638.2	604.9	579.5	559.7	532.8	505.6	477.7	448.4	413.0	381.7	349.9	345.4	321.6	234.8	179.4	141.9	106.2	89.47	86.52	155.5	792.7	3399	3557	222.8	6.601	3.086	2.678	2.516	2.233	2.406	2.467	2.378	2.902	2.995	2.783	2.868	3.707	3.663	3.970	3.500	3.385	3.853	3.859	3.865	3.925	3.961	3.706	4.068	4.081	3.852	3.864	3.792	3.836	3.706	3.998	4.046	4.164	4.014	4.107	4.200	4.404	4.191
410.0	715.4	842.5	916.5	922.3	906.5	863.6	826.8	791.4	794.6	783.7	780.6	770.3	747.7	709.9	660.4	611.2	582.5	558.3	540.9	516.6	495.3	474.8	451.6	422.6	393.2	361.5	336.5	327.4	298.3	224.0	168.9	126.8	96.60	74.62	74.45	205.4	904.5	2524	2734	907.4	15.89	3.537	2.920	2.550	2.393	2.491	2.453	2.815	2.937	2.677	2.730	3.508	3.454	3.781	3.676	3.460	3.735	3.822	3.824	3.894	3.671	3.777	3.775	3.797	3.642	3.691	3.675	3.692	3.816	3.895	4.010	3.929	3.766	3.969	3.961	4.019	4.122
415.0	690.1	802.3	878.4	878.0	869.6	831.6	818.0	799.7	773.9	774.6	761.6	737.0	711.5	671.4	634.1	583.1	549.2	527.3	512.5	493.2	478.6	465.1	445.2	426.1	399.2	373.2	339.3	315.0	312.7	279.6	199.7	145.0	111.0	84.31	65.97	81.46	225.6	587.4	1435	3559	1343	20.27	3.933	2.874	2.551	2.736	2.485	2.619	2.937	2.632	2.692	3.243	3.420	3.481	3.368	3.554	3.704	3.767	3.734	3.689	3.800	3.722	3.881	3.880	3.718	3.845	3.558	3.562	3.772	3.688	3.919	4.043	3.791	3.781	3.732	3.800	3.992
420.0	644.5	766.9	835.0	871.9	842.2	827.7	797.0	788.6	760.0	750.7	744.3	721.9	692.3	653.1	603.6	558.2	526.0	507.7	489.8	476.7	463.0	445.6	433.7	417.8	394.7	374.7	342.0	315.9	298.2	297.9	236.4	163.4	124.6	92.97	70.77	59.02	79.15	151.0	359.3	2026	3523	261.5	13.05	3.521	2.762	2.778	2.476	2.714	2.922	2.540	2.688	3.283	3.511	3.232	3.378	3.665	3.756	3.681	3.778	3.602	3.682	3.890	3.763	3.917	3.895	3.684	3.633	3.618	3.651	3.655	3.756	3.666	3.626	3.653	3.699	3.459	3.467
425.0	638.4	738.1	802.4	824.7	813.0	798.5	783.2	772.2	749.0	741.4	734.1	705.7	675.9	630.2	580.4	535.1	506.2	480.3	468.4	458.2	443.2	428.4	421.9	410.4	391.5	371.3	341.6	319.6	292.8	284.9	265.6	188.3	135.1	101.7	76.81	60.11	51.34	56.62	96.51	525.3	2421	2191	221.1	6.786	3.351	2.945	2.669	2.789	2.771	2.624	2.664	3.174	3.438	3.347	3.343	3.472	3.875	3.736	3.767	3.370	3.594	3.729	3.592	3.811	3.843	3.511	3.519	3.561	3.622	3.408	3.563	3.431	3.597	3.481	3.649	3.581	3.467
430.0	751.7	721.0	765.7	791.2	783.4	779.3	774.3	759.1	739.3	728.2	722.3	691.2	651.9	608.3	556.0	508.0	478.7	458.8	443.6	433.7	422.1	410.5	408.0	398.3	383.2	364.1	341.3	321.7	295.3	274.4	258.7	223.8	161.4	116.2	88.60	67.98	52.77	41.82	41.99	132.2	622.8	1731	2338	832.7	15.42	3.618	3.099	2.872	2.767	2.535	2.693	3.194	3.325	3.257	3.212	3.356	3.769	3.572	3.602	3.414	3.634	3.619	3.588	3.637	3.621	3.559	3.525	3.444	3.398	3.371	3.479	3.509	3.490	3.336	3.440	3.291	3.491
435.0	1237	716.0	745.4	769.7	758.1	763.5	757.4	741.0	742.9	711.7	715.0	675.2	637.6	589.1	529.0	479.5	452.4	435.1	421.5	414.1	396.9	394.9	388.0	383.5	369.2	356.2	336.6	317.9	298.4	271.1	245.8	226.8	196.9	139.8	100.8	77.71	60.02	45.39	35.14	48.83	152.8	401.3	1147	3070	1266	19.97	3.476	3.074	2.874	2.558	2.638	2.968	3.148	3.207	3.302	3.217	3.747	3.599	3.699	3.551	3.468	3.362	3.711	3.539	3.312	3.328	3.516	3.526	3.264	3.219	3.265	3.331	3.296	3.484	3.220	3.397	3.348
440.0	1692	860.1	715.5	740.8	750.6	738.1	748.5	731.1	724.8	708.3	701.5	657.1	609.4	562.8	512.1	457.8	438.9	417.7	403.0	392.4	381.9	380.1	374.3	368.3	359.6	350.4	329.9	313.9	295.0	273.3	245.2	218.3	202.1	160.4	110.9	85.39	66.74	49.84	37.50	33.22	50.55	102.3	284.1	1737	3157	241.1	12.32	3.813	3.147	2.552	2.611	2.937	3.175	3.214	3.398	3.104	3.656	3.485	3.662	3.606	3.631	3.302	3.531	3.372	3.391	3.397	3.162	3.176	3.178	3.250	3.074	3.043	3.438	3.174	3.149	3.194	3.378
445.0	1792	1260	711.1	704.7	732.7	710.4	715.9	716.5	706.9	697.4	685.0	641.8	595.4	539.1	489.3	442.4	416.8	397.8	381.7	370.0	362.2	359.2	357.6	352.9	349.6	337.3	321.2	308.5	292.8	273.5	242.8	211.4	191.6	173.6	127.0	93.01	70.91	55.01	41.07	32.39	30.24	36.94	75.19	453.6	2202	2657	187.6	7.448	3.454	2.816	2.624	2.977	3.057	2.936	3.407	3.121	3.596	3.362	3.578	3.485	3.297	3.283	3.557	3.528	3.444	3.488	3.265	3.186	3.149	3.037	2.990	3.315	3.155	3.004	2.956	2.992	3.067
450.0	1200	2021	916.7	664.7	679.8	677.2	676.2	683.7	675.0	658.0	647.6	611.0	562.7	506.9	456.1	410.7	386.0	369.6	353.7	343.7	335.8	332.4	330.4	326.9	324.6	314.2	303.4	293.6	281.9	262.3	237.0	206.4	179.4	164.8	144.0	106.5	76.98	59.88	46.50	36.38	29.45	25.53	30.20	111.7	566.5	1712	2030	737.3	13.31	3.289	2.796	3.137	3.064	3.057	3.099	3.150	3.428	3.188	3.462	3.273	3.373	3.381	3.394	3.393	3.279	3.218	3.060	3.017	2.998	3.014	2.980	3.042	2.868	2.791	2.829	2.905	2.993
455.0	652.4	2035	1795	659.5	620.4	638.3	639.4	641.3	646.5	618.6	605.7	573.7	518.4	467.1	413.9	373.0	349.8	334.5	320.3	311.1	308.3	301.2	299.8	300.2	296.2	289.2	281.3	272.9	264.4	248.2	227.8	200.4	172.5	149.9	138.4	121.7	88.32	64.34	51.75	40.71	32.07	25.88	22.69	36.77	135.7	393.6	946.8	2520	1016	15.72	3.204	3.298	3.077	3.027	2.934	2.941	2.973	3.030	3.230	3.155	3.123	3.167	3.154	3.329	3.141	3.209	2.978	3.171	2.895	2.843	2.825	2.838	2.830	2.666	2.734	2.620	2.697
460.0	500.9	1402	2489	824.1	574.6	591.2	605.0	611.9	612.4	601.3	578.7	545.7	484.4	442.5	393.6	350.0	325.8	312.4	298.6	287.2	281.4	276.6	279.4	278.6	274.0	270.8	264.5	256.9	248.9	236.6	217.6	193.1	166.4	142.9	126.2	122.6	97.47	69.04	54.17	42.92	34.08	27.38	22.14	21.78	40.71	96.46	231.0	1363	2525	180.7	10.87	3.749	2.995	2.915	2.859	2.924	2.936	3.214	3.302	3.082	3.039	3.016	3.057	3.101	3.040	2.985	3.098	2.955	2.844	2.700	2.672	2.570	2.952	2.484	2.603	2.455	2.588
465.0	434.5	808.6	2650	1382	568.0	553.1	567.1	579.6	576.5	565.3	552.7	513.4	459.9	411.3	364.6	327.1	303.3	286.6	274.3	266.7	260.1	259.9	259.6	258.5	252.5	250.2	245.5	240.2	235.2	221.9	209.7	185.1	160.6	140.9	118.9	111.2	104.1	76.48	56.96	44.20	36.33	29.55	23.43	19.49	20.67	30.87	59.49	350.9	1763	1993	159.5	6.831	3.212	3.042	2.886	2.935	3.101	3.054	2.953	3.118	2.857	2.923	2.854	2.966	2.844	2.922	2.803	2.691	2.839	2.535	2.639	2.512	2.494	2.289	2.493	2.440	2.510
470.0	398.5	515.4	1592	2410	782.6	502.8	514.7	520.3	517.4	517.8	500.3	467.7	425.3	377.5	330.6	293.3	272.7	256.1	246.3	239.6	232.2	230.6	228.6	231.2	225.4	224.0	221.2	217.5	213.8	203.5	191.7	172.9	150.6	131.5	112.9	100.2	93.33	83.39	62.28	46.79	37.80	30.44	24.72	20.67	17.35	17.38	21.79	85.45	452.4	1269	1450	614.8	13.07	3.330	2.855	2.821	2.953	2.826	2.761	2.982	2.666	2.753	2.737	2.868	2.809	2.656	2.691	2.506	2.482	2.466	2.359	2.298	2.239	2.263	2.283	2.259	2.243
475.0	399.0	425.4	732.2	2324	1696	478.7	464.1	473.1	472.2	473.1	452.1	428.5	380.0	337.6	296.2	260.1	242.5	229.1	217.8	209.8	205.9	202.9	201.0	202.9	199.2	198.3	198.8	194.0	190.9	184.8	173.6	156.6	139.8	122.7	107.8	91.70	80.67	78.43	69.48	51.02	38.87	31.65	25.90	21.89	17.98	15.65	13.97	26.66	106.9	290.2	636.1	1700	718.5	16.71	3.102	2.822	2.827	2.695	2.632	2.739	2.609	2.724	2.627	2.661	2.514	2.492	2.507	2.269	2.452	2.439	2.136	2.071	2.271	2.034	1.851	2.318	2.136
480.0	365.8	386.0	458.9	1514	2520	588.7	435.8	442.6	439.2	433.9	422.7	394.2	357.7	311.3	273.7	244.2	224.2	211.7	201.5	192.4	189.5	186.5	183.1	184.5	183.5	181.3	181.5	179.7	175.7	172.6	162.9	148.5	132.1	117.0	101.8	87.44	75.80	70.10	68.44	55.87	40.58	31.38	26.82	22.48	18.45	15.62	12.66	14.08	30.81	70.35	155.1	883.8	1741	208.8	9.816	3.111	2.684	2.477	2.643	2.417	2.495	2.443	2.451	2.538	2.435	2.390	2.369	2.301	2.202	2.094	2.023	2.029	1.972	2.059	1.955	2.120	2.065
485.0	317.6	393.8	385.9	799.5	2654	1176	408.2	412.8	414.0	412.6	397.1	368.1	336.9	288.7	256.8	224.1	207.3	195.1	187.3	178.6	175.2	173.5	171.3	170.7	169.5	168.7	167.7	167.2	165.4	162.7	152.5	137.9	126.1	109.7	96.52	83.79	73.45	65.31	62.30	59.59	43.96	32.53	27.95	23.02	19.47	16.42	13.49	11.89	13.85	21.43	39.50	227.5	1201	1536	167.0	5.325	2.914	2.501	2.634	2.569	2.240	2.333	2.409	2.477	2.255	2.255	2.349	2.126	2.108	2.192	1.881	1.950	2.037	1.882	1.945	1.987	1.921
490.0	274.2	382.8	359.1	458.0	1659	2288	591.7	376.5	385.1	379.4	369.2	341.3	310.1	268.0	236.2	207.0	191.5	178.7	169.8	162.6	159.3	156.9	156.2	155.6	153.8	152.7	152.7	152.4	149.6	148.3	141.8	129.4	116.9	103.5	91.33	80.42	70.47	61.79	55.20	54.25	49.15	36.77	28.40	23.67	20.08	17.28	14.39	12.09	10.99	10.93	13.99	55.51	308.6	934.3	1352	553.4	13.74	2.947	2.770	2.495	2.314	2.216	2.287	2.209	2.398	2.182	2.087	1.899	1.975	2.029	1.887	1.913	1.923	1.778	1.874	1.781	1.730
495.0	250.0	340.6	357.6	342.1	693.5	2388	1454	355.5	345.0	345.5	331.3	310.7	282.1	243.0	211.3	185.6	171.0	159.4	152.3	144.9	141.3	140.3	139.8	137.4	136.8	136.1	135.8	134.7	134.7	132.5	128.7	117.3	106.9	94.27	86.20	73.87	66.65	58.13	51.86	47.13	46.92	41.43	30.42	23.84	20.53	18.01	15.07	12.77	10.84	9.193	8.780	17.26	72.88	214.0	622.4	1615	755.8	17.71	2.790	2.563	2.428	2.190	2.142	2.020	2.153	2.027	2.078	1.816	1.871	1.963	1.905	1.774	1.728	1.768	1.699	1.788	1.751
500.0	216.4	281.8	361.5	308.6	380.6	1591	2372	417.4	313.9	312.5	305.9	288.7	258.1	221.4	192.2	171.3	156.6	145.3	140.4	133.6	129.2	126.3	126.2	123.7	124.5	122.5	123.9	122.8	122.1	121.0	116.1	109.9	98.36	88.96	79.21	69.83	62.37	54.62	48.63	43.54	40.60	41.39	33.42	25.24	20.62	18.01	15.48	13.09	10.85	9.029	8.147	8.938	20.62	51.80	151.1	833.7	1688	225.6	10.56	2.705	2.335	2.181	2.059	2.233	1.936	1.847	1.910	1.786	1.786	1.703	1.768	1.693	1.594	1.719	1.480	1.486	1.490
505.0	212.9	252.0	339.0	308.8	283.8	797.1	2758	919.8	288.8	291.0	280.4	269.5	236.2	206.8	179.2	159.0	141.7	130.7	126.3	120.7	118.5	115.0	114.5	112.1	114.2	111.9	111.6	111.1	111.2	114.0	107.4	101.1	90.43	82.34	73.70	64.48	58.96	51.74	46.04	40.56	36.34	36.48	35.49	26.57	21.13	18.01	15.67	13.23	11.08	9.629	8.057	7.131	8.967	15.56	37.36	213.0	1098	1443	181.1	4.731	2.405	2.159	2.059	1.977	1.927	1.869	1.817	1.673	1.701	1.536	1.675	1.676	1.446	1.493	1.380	1.484	1.481
510.0	186.1	218.6	272.5	299.5	250.9	374.5	1771	2163	410.5	261.2	252.1	235.9	207.4	184.7	158.3	139.0	126.1	117.2	112.2	106.0	102.4	101.7	99.98	98.32	98.94	97.32	97.11	97.95	98.24	98.19	94.97	89.12	80.11	72.96	66.55	58.74	53.31	47.42	41.85	37.97	33.11	30.81	31.96	29.46	22.68	17.64	14.91	12.97	11.11	9.639	8.304	6.973	6.403	7.397	11.89	50.85	279.2	842.8	1151	443.5	13.47	2.333	2.093	1.891	1.890	1.695	1.824	1.639	1.552	1.445	1.554	1.495	1.308	1.430	1.474	1.362	1.433
515.0	162.5	188.8	218.8	285.7	238.8	246.6	666.0	2588	1170	238.8	219.0	209.7	182.8	161.4	139.5	120.7	112.5	102.4	96.27	91.58	87.66	86.82	86.11	86.79	86.26	85.10	83.75	85.06	86.22	84.50	83.23	76.97	71.25	64.65	58.09	53.30	47.34	42.60	38.43	34.25	30.64	27.05	26.25	27.20	25.10	18.95	14.70	12.38	10.92	9.316	8.355	7.270	6.039	5.799	6.395	14.65	65.46	191.9	479.5	1249	243.3	16.84	2.199	1.884	1.733	1.599	1.548	1.508	1.450	1.447	1.447	1.455	1.205	1.243	1.359	1.265	1.428
520.0	158.1	166.0	190.6	245.4	244.8	207.0	305.1	1801	2264	287.1	201.7	189.6	163.0	146.1	124.2	109.1	99.17	91.41	86.18	83.54	79.75	79.53	77.68	76.62	76.31	75.66	74.82	75.51	76.60	76.29	73.74	69.55	65.02	57.30	53.14	47.72	44.07	39.30	35.44	31.99	28.08	25.22	23.48	23.07	24.82	20.35	14.81	12.45	10.38	8.813	7.819	7.246	6.231	5.647	5.154	6.405	17.41	45.62	115.0	618.6	1174	221.7	10.45	1.912	1.605	1.585	1.445	1.664	1.462	1.321	1.366	1.332	1.293	1.281	1.252	1.326	1.283
525.0	151.8	155.4	172.0	201.0	243.4	191.8	207.1	852.3	2932	728.1	184.9	168.2	150.7	132.4	114.1	99.79	91.05	84.47	78.80	74.94	73.03	71.01	69.13	68.88	68.41	68.80	66.77	68.97	69.33	68.59	66.38	63.34	57.85	53.10	48.09	43.96	40.07	35.78	32.67	29.46	26.24	23.86	22.00	19.98	22.16	21.62	15.57	12.47	10.15	9.111	7.549	6.992	6.241	5.812	4.656	4.472	6.724	13.04	28.42	155.0	737.0	1061	178.9	4.362	1.880	1.500	1.495	1.438	1.374	1.228	1.360	1.260	1.264	1.300	1.211	1.268	1.219
530.0	143.5	140.9	147.7	160.4	216.0	187.3	171.0	328.6	1998	2142	230.5	150.6	132.7	115.9	99.14	86.95	79.74	73.32	69.41	65.17	62.89	61.41	59.73	59.39	58.94	59.02	57.93	58.93	59.29	59.80	58.54	54.87	50.19	46.42	42.23	38.97	35.17	31.38	29.07	26.23	24.24	21.92	19.83	17.65	17.89	19.14	17.13	12.81	10.09	8.468	7.353	6.554	5.782	5.566	4.721	4.293	4.545	5.530	8.864	37.03	184.2	574.3	823.9	345.9	13.35	1.629	1.495	1.437	1.249	1.207	1.300	1.188	1.237	1.172	1.130	1.096	1.053
535.0	114.2	116.6	124.5	128.6	163.8	195.3	146.2	180.3	693.2	2823	990.1	133.2	118.0	102.7	86.69	76.72	69.29	64.42	60.29	56.04	54.27	52.30	51.08	51.85	50.93	49.87	50.43	51.22	50.11	51.01	48.89	46.67	43.03	40.28	36.14	33.49	31.05	27.42	25.69	23.37	21.59	19.27	17.43	15.94	15.13	15.14	16.13	14.28	10.56	8.062	6.941	6.121	5.151	5.013	4.793	4.264	3.824	3.641	4.421	10.45	42.99	130.6	311.8	863.7	244.9	16.59	1.566	1.436	1.299	1.274	1.259	1.185	1.131	1.079	1.083	0.972	1.040
540.0	105.3	113.4	114.6	115.9	128.2	192.1	142.6	135.4	260.4	1982	1947	172.5	105.2	89.62	75.82	68.70	61.19	55.77	53.44	49.93	48.67	45.91	45.72	45.89	45.28	43.84	43.23	45.18	45.26	44.86	42.49	41.45	38.01	35.19	32.14	29.90	27.91	24.21	22.95	20.53	18.84	17.31	15.91	14.23	13.49	12.89	13.46	14.21	10.95	7.984	6.394	6.049	5.065	4.647	4.712	4.284	3.557	3.412	3.379	4.369	11.65	31.14	73.87	399.0	827.2	215.1	9.354	1.381	1.296	1.262	1.162	0.986	1.072	0.924	0.985	1.067	0.982
545.0	115.5	104.0	106.7	104.5	101.5	157.8	155.2	120.0	145.7	872.6	2929	465.5	95.59	80.75	68.28	58.59	53.50	50.53	46.53	44.24	42.91	41.04	40.94	40.45	38.56	38.83	39.24	38.46	39.17	38.96	36.87	36.33	34.14	31.20	29.01	26.01	24.27	21.78	20.72	18.97	17.08	15.65	14.81	13.04	12.54	11.37	11.08	12.50	11.02	7.924	5.995	5.487	4.738	4.414	4.085	4.054	3.671	3.304	2.904	3.105	4.673	8.760	18.34	97.76	473.0	751.0	164.8	3.797	1.314	1.117	1.113	1.005	0.899	0.944	0.914	1.001	0.895
550.0	106.6	102.3	101.7	88.45	88.82	115.8	158.5	112.7	105.2	290.6	1964	1771	129.3	67.16	59.04	49.40	45.20	42.47	39.88	37.62	35.79	34.93	34.31	33.16	32.83	31.78	33.21	32.05	33.02	32.48	30.97	30.31	28.31	25.78	24.40	21.91	20.41	18.64	17.50	16.23	14.65	13.31	12.26	11.63	10.80	9.706	9.266	9.337	9.874	8.471	6.171	4.812	4.491	4.036	3.741	3.626	3.571	3.267	2.750	2.626	2.901	3.633	5.687	23.36	115.8	368.3	549.0	248.6	13.19	1.328	1.071	1.001	0.938	0.979	0.924	0.819	0.871
555.0	112.4	107.6	108.9	88.03	78.78	82.23	135.1	120.1	88.74	129.7	631.4	2616	627.3	58.85	48.30	40.93	37.86	34.98	31.55	31.06	29.29	28.10	28.06	27.31	26.92	26.39	26.79	25.95	27.75	26.82	26.06	24.44	22.82	21.26	19.95	18.35	16.45	15.51	14.77	13.18	12.21	11.41	10.50	9.378	9.344	8.239	7.536	7.377	7.431	8.014	6.521	4.784	3.972	3.460	3.273	3.345	3.106	3.193	2.862	2.329	2.306	2.335	2.768	6.694	27.21	83.57	187.3	519.3	241.3	17.59	1.161	0.982	0.891	0.859	0.824	0.857	0.774
560.0	113.6	125.7	112.7	84.14	71.05	68.21	102.9	127.6	79.76	89.51	209.7	1844	1394	81.31	41.45	36.48	32.66	30.33	27.44	27.05	25.28	24.43	22.74	22.88	23.04	22.41	22.64	21.35	23.29	23.17	21.82	20.90	19.64	18.03	16.98	15.66	14.39	13.16	12.60	11.63	10.58	9.631	9.228	8.298	8.104	7.166	6.662	6.324	6.053	6.605	6.372	4.938	3.681	3.474	2.986	2.792	2.814	2.841	2.988	2.394	2.055	1.964	1.783	2.866	7.313	19.98	43.85	212.9	511.9	204.8	9.941	1.113	1.008	0.884	0.844	0.791	0.731
565.0	114.2	127.1	110.3	84.89	65.54	59.79	74.39	128.4	83.42	74.36	99.62	772.8	2409	155.7	37.08	32.57	28.45	24.69	23.31	23.13	22.32	20.47	19.69	20.00	19.45	18.96	18.57	18.44	18.80	19.39	18.63	18.23	17.03	15.64	14.38	13.54	12.46	11.68	10.61	9.826	9.090	8.177	7.759	7.654	7.085	6.182	6.039	5.535	5.140	5.179	5.906	5.119	3.587	3.059	2.717	2.576	2.504	2.635	2.434	2.428	1.929	1.746	1.715	1.861	2.845	5.713	11.02	50.97	244.1	470.7	147.4	4.207	0.968	0.903	0.820	0.828	0.737
570.0	130.7	129.6	112.6	82.11	61.26	52.12	57.38	101.0	101.7	67.62	71.42	236.8	1672	1300	66.06	27.12	23.26	21.63	19.30	19.07	17.71	17.03	16.44	15.75	15.29	15.62	15.21	15.18	15.44	15.74	15.11	14.32	13.63	12.63	11.92	11.09	10.00	9.581	8.492	8.062	7.759	7.050	6.578	6.236	5.965	5.476	5.078	4.698	4.313	4.056	4.277	4.638	3.704	2.925	2.507	2.406	2.203	2.141	2.113	2.219	2.124	1.764	1.545	1.612	1.729	2.420	3.545	12.51	57.99	194.2	322.6	143.5	13.86	1.108	0.781	0.804	0.761
575.0	128.4	143.0	119.3	82.51	59.66	47.02	48.74	66.71	116.3	76.71	60.80	97.45	503.3	2015	423.5	23.13	19.98	17.24	16.55	15.26	14.20	13.81	13.22	12.41	12.41	12.61	12.52	12.18	13.05	12.46	12.48	11.68	11.06	10.06	9.435	8.878	8.373	7.748	7.252	6.731	6.377	6.182	5.597	5.398	4.942	4.641	4.377	3.883	3.536	3.257	3.121	3.539	3.683	3.154	2.422	2.212	2.170	1.956	1.770	1.779	1.896	1.966	1.580	1.457	1.504	1.596	1.894	3.747	13.95	44.21	94.20	265.1	223.4	18.41	1.024	0.853	0.801
580.0	128.1	151.6	123.4	84.62	53.22	42.81	42.12	51.15	103.5	91.53	61.76	63.34	153.4	1375	1002	35.78	16.17	15.26	13.79	13.07	11.96	11.22	11.06	10.72	10.75	10.54	10.49	10.54	10.69	10.66	10.62	10.15	8.995	8.776	8.071	7.583	7.202	6.656	6.269	5.842	5.385	5.274	4.894	4.542	4.203	3.857	3.732	3.343	3.256	3.029	2.731	2.765	3.309	3.169	2.416	1.953	1.922	1.795	1.865	1.638	1.625	1.861	1.761	1.568	1.514	1.282	1.495	1.829	4.055	10.81	22.10	94.43	292.8	172.8	11.18	0.929	0.722
585.0	129.1	144.1	122.1	85.92	52.37	40.93	38.33	44.96	78.03	106.3	61.39	59.81	70.41	539.4	1747	101.4	15.01	13.60	11.66	11.29	10.27	10.51	9.991	9.323	9.635	9.467	9.028	9.614	9.075	9.060	8.948	8.486	7.711	7.777	7.081	6.670	6.228	5.828	5.324	5.190	4.770	4.434	4.212	4.054	3.816	3.462	3.386	2.983	2.829	2.526	2.464	2.202	2.684	2.862	2.548	2.009	1.859	1.527	1.592	1.536	1.454	1.613	1.728	1.664	1.453	1.374	1.416	1.252	1.783	3.481	5.897	22.54	116.7	278.7	116.3	4.603	0.786
590.0	129.7	139.7	117.2	80.42	49.14	39.11	36.96	41.06	56.89	101.1	73.62	53.89	48.15	156.7	1159	847.4	31.34	11.73	10.23	9.650	9.260	9.135	8.202	8.235	8.080	7.825	7.602	7.822	7.544	7.833	7.269	7.221	6.602	6.201	5.687	5.650	5.365	5.105	4.443	4.385	3.931	3.805	3.462	3.447	3.251	3.078	3.139	2.618	2.497	2.199	2.089	1.907	1.995	2.337	2.490	2.096	1.758	1.445	1.361	1.416	1.283	1.388	1.423	1.552	1.457	1.346	1.322	1.149	1.421	1.666	2.149	5.925	27.52	100.0	185.1	115.3	14.27
595.0	119.0	130.1	110.7	75.41	42.95	37.32	33.98	36.34	46.88	75.17	95.32	52.20	43.65	58.23	337.6	1298	235.4	10.61	8.958	7.591	7.652	7.425	7.047	6.843	6.380	5.951	5.891	5.938	6.264	6.150	5.985	5.775	5.716	5.202	4.761	4.620	4.305	4.001	3.568	3.489	3.495	3.254	2.922	2.806	2.723	2.625	2.539	2.208	2.013	2.001	1.657	1.671	1.749	1.695	1.949	2.140	1.870	1.441	1.329	1.390	1.142	1.282	1.191	1.283	1.592	1.410	1.316	1.132	1.171	1.278	1.324	2.096	6.879	22.98	48.93	145.8	154.1
600.0	124.9	120.5	101.9	74.18	45.98	36.49	32.67	36.29	41.99	59.00	98.88	57.10	45.32	35.88	95.22	888.5	687.8	17.57	7.722	6.723	6.609	6.407	6.055	5.837	5.402	5.113	5.022	5.536	5.273	5.175	5.262	5.167	4.756	4.325	4.192	3.753	3.757	3.317	3.340	3.179	2.999	2.784	2.430	2.455	2.427	2.350	2.171	2.151	1.831	1.710	1.514	1.515	1.547	1.379	1.510	1.890	1.777	1.626	1.179	1.121	1.115	1.310	1.213	1.198	1.296	1.412	1.264	1.106	1.160	1.169	1.099	1.291	2.235	5.868	11.65	46.55	160.9
605.0	111.4	118.7	94.55	68.90	40.65	34.26	33.26	36.76	41.15	53.57	90.03	69.62	43.22	33.08	37.87	345.7	1093	68.72	7.245	6.599	6.148	5.576	5.338	4.733	5.061	4.794	4.408	4.799	4.688	4.912	4.614	4.638	4.076	3.911	3.708	3.337	3.337	3.039	2.950	2.770	2.736	2.346	2.199	2.207	2.115	2.163	1.843	1.770	1.602	1.556	1.358	1.481	1.344	1.167	1.311	1.461	1.780	1.654	1.291	1.086	1.147	1.221	1.126	1.056	1.223	1.357	1.263	1.119	1.250	1.099	1.064	1.128	1.167	1.993	3.299	11.09	56.40
610.0	103.1	104.3	89.10	65.93	41.36	34.25	33.16	34.77	40.38	49.56	71.39	86.40	49.91	34.23	27.16	97.55	745.6	510.6	16.80	5.547	5.226	4.909	4.535	4.149	4.237	3.957	3.964	4.131	3.822	3.970	3.806	3.718	3.542	3.420	3.035	2.924	2.872	2.651	2.480	2.347	2.295	2.041	2.093	1.883	1.860	1.769	1.722	1.578	1.399	1.310	1.213	1.221	1.075	1.171	1.092	1.149	1.445	1.532	1.260	1.037	1.087	1.089	1.062	1.017	1.060	1.054	1.181	1.190	1.226	1.084	1.010	1.009	0.886	1.115	1.351	3.078	13.42
615.0	93.77	100.4	85.02	57.84	36.99	31.92	31.10	34.62	39.51	47.00	58.66	84.66	60.17	34.64	25.69	34.89	221.4	857.9	76.75	5.176	4.517	4.287	3.679	3.658	3.644	3.483	3.502	3.340	3.416	3.354	3.161	3.202	2.992	2.739	2.623	2.347	2.317	2.363	2.142	1.932	1.873	1.773	1.777	1.611	1.595	1.520	1.458	1.448	1.281	1.123	1.084	1.080	0.861	1.048	1.084	1.000	1.221	1.306	1.218	1.189	0.980	1.123	1.003	0.987	1.048	0.998	1.171	1.347	1.315	0.964	0.933	1.045	0.925	0.896	0.974	1.310	3.687
620.0	86.54	96.67	79.10	56.18	36.50	30.65	31.65	33.85	37.47	45.93	54.22	73.85	70.90	36.10	24.31	19.76	63.13	622.5	449.4	8.734	3.997	4.158	3.361	3.290	3.283	2.957	3.051	2.854	2.842	2.878	2.896	2.590	2.488	2.414	2.351	2.277	1.951	2.123	1.978	1.644	1.708	1.638	1.455	1.456	1.431	1.384	1.319	1.260	1.215	1.044	0.885	0.988	1.010	0.987	0.981	0.890	1.006	1.132	1.139	1.146	1.087	1.010	0.983	0.972	1.038	0.907	1.050	1.189	1.174	1.103	1.054	0.943	0.946	0.837	0.904	0.913	1.487
625.0	91.13	92.94	74.52	53.90	36.69	31.33	31.31	33.84	37.54	44.31	50.93	62.43	74.35	39.21	25.76	17.61	24.13	261.2	753.8	42.36	4.099	3.431	3.331	2.993	2.928	2.768	2.610	2.671	2.708	2.538	2.599	2.497	2.171	2.230	2.015	1.856	1.910	1.921	1.645	1.651	1.469	1.535	1.393	1.284	1.308	1.265	1.212	1.222	1.110	0.965	0.835	0.905	0.957	0.819	0.919	0.894	0.891	0.936	1.067	1.123	1.054	0.943	0.986	0.917	0.939	0.953	0.947	0.887	1.151	1.164	0.988	0.934	0.911	0.912	0.803	0.836	0.928
630.0	87.39	82.80	72.32	49.93	33.74	30.70	29.93	31.27	36.77	43.15	48.99	53.51	68.47	47.70	26.03	16.78	15.49	71.91	561.7	351.3	8.653	3.234	3.193	2.895	2.568	2.359	2.326	2.334	2.338	2.163	2.186	2.161	2.019	1.991	1.847	1.767	1.817	1.649	1.632	1.474	1.362	1.239	1.232	1.127	1.192	1.148	1.108	1.041	0.949	0.857	0.769	0.865	0.853	0.801	0.829	0.824	0.831	0.818	0.914	1.045	0.980	0.968	0.933	0.858	0.904	0.868	0.895	0.827	0.999	1.035	1.047	0.843	0.864	0.856	0.765	0.778	0.777
635.0	79.71	79.97	70.24	45.34	33.56	28.36	29.18	30.21	35.74	40.33	47.12	49.19	55.73	54.80	29.63	17.09	14.17	23.62	174.0	637.2	57.73	3.172	2.805	2.694	2.350	2.094	2.192	2.132	2.264	2.114	1.958	1.683	1.725	1.813	1.512	1.591	1.622	1.450	1.453	1.310	1.256	1.141	1.152	1.032	1.057	1.078	0.960	0.873	0.836	0.756	0.731	0.768	0.828	0.758	0.733	0.728	0.827	0.791	0.762	0.842	0.897	1.017	0.837	0.852	0.885	0.944	0.908	0.788	0.873	0.846	0.986	0.905	0.925	0.833	0.751	0.714	0.686
640.0	90.45	74.52	61.63	46.51	33.62	29.40	29.65	30.32	32.54	39.66	46.35	48.58	47.90	57.74	32.74	17.87	13.98	12.11	47.74	509.7	289.9	5.315	2.761	2.640	2.137	2.011	2.066	1.945	1.747	1.749	1.785	1.761	1.649	1.575	1.399	1.538	1.429	1.350	1.243	1.300	1.059	1.136	1.078	0.989	0.975	0.969	0.895	0.795	0.815	0.734	0.755	0.699	0.710	0.772	0.695	0.705	0.791	0.797	0.792	0.748	0.857	0.974	0.847	0.796	0.830	0.885	0.830	0.870	0.859	0.877	0.892	0.991	0.848	0.851	0.723	0.690	0.774
645.0	85.81	80.62	64.29	44.43	33.76	29.13	30.07	28.68	33.30	39.74	47.16	44.62	44.33	53.49	39.41	19.34	14.17	10.63	15.86	233.2	530.7	25.23	2.603	2.456	2.031	1.880	1.785	1.765	1.820	1.680	1.543	1.592	1.520	1.425	1.275	1.472	1.288	1.327	1.128	1.208	1.075	1.091	1.015	0.892	0.901	0.869	0.844	0.799	0.799	0.677	0.734	0.657	0.638	0.687	0.657	0.786	0.760	0.758	0.738	0.779	0.790	0.842	0.857	0.768	0.822	0.806	0.779	0.865	0.806	0.845	0.827	0.873	0.883	0.925	0.802	0.707	0.766
650.0	79.05	82.60	65.34	46.14	34.45	27.20	27.35	28.47	33.79	39.00	43.82	46.24	44.75	45.10	44.27	21.52	13.65	9.751	8.699	69.97	543.2	67.78	2.699	2.296	1.868	1.781	1.588	1.760	1.530	1.558	1.489	1.420	1.491	1.410	1.205	1.323	1.302	1.255	1.126	1.060	1.071	1.101	0.997	0.907	0.859	0.806	0.852	0.840	0.804	0.676	0.692	0.603	0.674	0.652	0.642	0.719	0.767	0.692	0.657	0.785	0.702	0.751	0.842	0.819	0.787	0.811	0.765	0.786	0.824	0.780	0.884	0.852	0.838	0.881	0.784	0.704	0.701
