Sample:	'1
File name:	g2025081901章齐沟入小清河.FD3
Run date:	'16:38:15, 08/19/2025
Operator:	Administrator
Comment:	'

Instrument
Model:	F-2700 FL Spectrophotometer
Serial number:	23B8-004
ROM Version:	4J14000 07

Instrument parameters
Measurement type:	3-D scan
Data mode:	Fluorescence
EX  Start WL:	220.0 nm
EX  End WL:	600.0 nm
EX Sampling interval:	5.0 nm
EM  Start WL:	230.0 nm
EM  End WL:	650.0 nm
EM Sampling interval:	5.0 nm
Scan speed:	12000 nm/min
EX Slit:	5.0 nm
EM Slit:	5.0 nm
PMT Voltage:	700 V
Response:	Auto 
Corrected spectra:	Off
Contour interval:	50.000

Peak integration
Integration method:	Rectangular
Sensitivity:	1
Threshold:	1.000

Peaks
No.	ApexEX/EM(nm)	Height(Data)
1	230.0/590.0	56.26
2	230.0/600.0	51.14
3	240.0/265.0	318.9
4	245.0/270.0	334.2
5	245.0/400.0	1338
6	245.0/535.0	275.9
7	250.0/275.0	441.1
8	250.0/545.0	222.9
9	255.0/280.0	554.9
10	255.0/560.0	178.8
11	260.0/575.0	138.2
12	265.0/585.0	129.3
13	270.0/300.0	1232
14	270.0/600.0	116.9
15	275.0/305.0	1402
16	275.0/345.0	1402
17	275.0/610.0	105.9
18	280.0/350.0	1395
19	280.0/385.0	1469
20	280.0/625.0	89.46
21	285.0/320.0	1294
22	285.0/635.0	66.42
23	495.0/270.0	1.937
24	505.0/275.0	3.167
25	515.0/280.0	3.313
26	520.0/285.0	3.648
27	530.0/290.0	3.892
28	540.0/295.0	5.260
29	545.0/300.0	6.722
30	555.0/305.0	6.872
31	565.0/310.0	6.692
32	570.0/315.0	6.887

Data points
	220.0	225.0	230.0	235.0	240.0	245.0	250.0	255.0	260.0	265.0	270.0	275.0	280.0	285.0	290.0	295.0	300.0	305.0	310.0	315.0	320.0	325.0	330.0	335.0	340.0	345.0	350.0	355.0	360.0	365.0	370.0	375.0	380.0	385.0	390.0	395.0	400.0	405.0	410.0	415.0	420.0	425.0	430.0	435.0	440.0	445.0	450.0	455.0	460.0	465.0	470.0	475.0	480.0	485.0	490.0	495.0	500.0	505.0	510.0	515.0	520.0	525.0	530.0	535.0	540.0	545.0	550.0	555.0	560.0	565.0	570.0	575.0	580.0	585.0	590.0	595.0	600.0
230.0	18.55	289.9	1086	446.1	23.18	3.662	3.569	2.707	2.594	2.584	2.494	2.213	2.183	1.780	1.553	1.319	1.129	1.136	0.977	1.059	0.966	0.820	0.720	0.726	0.621	0.615	0.531	0.559	0.490	0.443	0.420	0.380	0.370	0.352	0.305	0.312	0.305	0.232	0.271	0.232	0.185	0.269	0.265	0.213	0.187	0.176	0.354	1.679	3.606	3.597	1.700	0.442	0.170	0.127	0.108	0.116	0.185	0.106	0.122	0.141	0.151	0.151	0.144	0.140	0.145	0.129	0.137	0.113	0.106	0.119	0.149	0.131	0.098	0.149	0.108	0.106	0.101
235.0	40.04	89.59	648.0	1519	516.6	44.14	4.510	3.008	2.787	2.779	2.865	1.906	2.276	1.893	1.673	1.239	1.427	1.409	1.009	1.024	0.870	0.868	0.859	0.777	0.668	0.680	0.519	0.535	0.473	0.526	0.457	0.506	0.378	0.352	0.294	0.342	0.228	0.219	0.266	0.206	0.262	0.246	0.284	0.245	0.241	0.194	0.242	0.528	1.264	2.986	5.107	6.522	4.078	1.077	0.201	0.087	0.160	0.137	0.159	0.113	0.127	0.100	0.116	0.114	0.129	0.122	0.095	0.127	0.145	0.134	0.138	0.110	0.122	0.141	0.105	0.094	0.108
240.0	59.33	67.84	189.6	1194	1984	430.7	28.33	4.232	3.308	3.052	3.928	2.315	2.618	2.345	2.331	1.522	1.433	1.432	0.885	1.014	1.253	1.034	0.734	0.719	0.507	0.677	0.490	0.624	0.475	0.421	0.646	0.443	0.372	0.295	0.389	0.276	0.255	0.255	0.228	0.243	0.291	0.212	0.239	0.277	0.301	0.279	0.332	0.293	0.451	0.928	2.460	6.499	10.08	8.199	3.492	0.708	0.220	0.113	0.188	0.134	0.125	0.187	0.154	0.120	0.123	0.165	0.114	0.111	0.135	0.116	0.273	0.138	0.157	0.245	0.078	0.157	0.083
245.0	45.01	115.1	87.74	373.2	1881	2293	333.3	14.37	3.550	4.248	4.359	3.422	2.327	2.279	2.155	1.675	1.559	1.405	1.114	1.135	1.010	1.002	1.046	0.639	0.677	0.504	0.606	0.726	0.537	0.479	0.594	0.388	0.398	0.279	0.423	0.356	0.248	0.188	0.208	0.279	0.225	0.180	0.186	0.290	0.276	0.282	0.498	0.469	0.351	0.328	0.716	2.015	5.467	11.51	13.84	9.173	2.790	0.407	0.155	0.134	0.129	0.180	0.175	0.087	0.116	0.110	0.175	0.125	0.129	0.095	0.170	0.117	0.102	0.164	0.126	0.109	0.108
250.0	27.44	88.13	158.0	160.5	568.9	1886	2826	1151	76.37	5.611	4.793	3.855	2.551	2.740	2.323	1.880	1.558	1.373	1.386	1.382	1.171	0.954	0.917	0.843	0.719	0.569	0.566	0.658	0.464	0.477	0.528	0.493	0.425	0.384	0.378	0.326	0.253	0.314	0.276	0.266	0.266	0.235	0.202	0.271	0.246	0.203	0.287	0.443	0.662	0.580	0.656	0.764	1.417	3.355	6.763	10.96	15.14	15.07	9.630	3.245	0.492	0.156	0.165	0.124	0.143	0.144	0.158	0.130	0.168	0.132	0.199	0.158	0.136	0.136	0.154	0.124	0.122
255.0	20.63	33.73	104.8	253.6	221.2	465.8	1773	4474	1675	87.17	7.398	4.562	3.728	3.081	2.893	2.391	1.684	1.548	1.596	1.271	1.078	0.905	0.757	0.742	0.665	0.754	0.694	0.653	0.377	0.603	0.574	0.568	0.373	0.374	0.254	0.333	0.234	0.292	0.223	0.237	0.218	0.292	0.242	0.235	0.253	0.198	0.275	0.230	0.411	0.577	1.098	1.212	0.912	0.948	1.678	2.757	4.613	10.63	22.05	26.70	15.58	4.233	0.366	0.183	0.155	0.150	0.168	0.139	0.149	0.129	0.131	0.158	0.198	0.150	0.162	0.136	0.127
260.0	17.09	23.88	44.75	216.9	283.9	160.9	499.7	3062	5219	1292	40.09	6.406	4.684	3.940	2.717	2.501	1.880	1.824	1.565	1.381	1.071	1.026	0.840	0.944	0.655	0.804	0.687	0.653	0.578	0.539	0.667	0.539	0.457	0.382	0.399	0.303	0.240	0.302	0.238	0.205	0.182	0.315	0.197	0.257	0.214	0.236	0.250	0.196	0.252	0.267	0.667	1.311	1.756	1.042	0.755	0.795	1.225	2.799	7.871	18.63	30.82	28.29	13.93	2.311	0.287	0.190	0.197	0.189	0.169	0.196	0.133	0.196	0.144	0.173	0.147	0.111	0.121
265.0	18.51	16.93	19.03	89.15	318.9	230.2	147.6	936.6	4567	5484	238.8	15.99	6.603	4.855	3.339	2.621	2.048	1.981	1.583	1.383	1.244	1.059	1.085	0.978	0.995	0.701	0.773	0.820	0.539	0.446	0.560	0.479	0.510	0.454	0.432	0.412	0.305	0.334	0.337	0.215	0.243	0.231	0.244	0.251	0.293	0.244	0.201	0.297	0.205	0.213	0.269	0.663	1.292	1.663	1.551	0.817	0.481	0.967	2.033	4.907	12.79	26.67	38.30	25.65	8.918	1.038	0.275	0.132	0.150	0.167	0.166	0.213	0.110	0.153	0.140	0.134	0.102
270.0	27.34	24.54	22.78	33.97	136.1	334.2	271.3	262.6	1333	4366	6031	895.9	62.25	6.575	4.853	3.188	2.557	2.081	1.825	1.338	1.325	1.145	1.231	0.924	0.852	0.940	0.848	0.840	0.539	0.583	0.589	0.575	0.468	0.440	0.426	0.411	0.291	0.309	0.357	0.281	0.257	0.314	0.235	0.248	0.304	0.252	0.250	0.267	0.215	0.182	0.266	0.298	0.462	0.900	1.633	1.937	1.892	1.267	0.758	1.322	3.170	7.090	14.73	24.05	29.15	31.59	17.73	7.927	0.995	0.189	0.223	0.170	0.158	0.187	0.158	0.151	0.150
275.0	53.44	57.46	48.43	39.42	51.51	137.3	441.1	321.3	351.7	1066	3518	8505	1280	68.22	7.707	4.648	3.313	2.544	2.220	1.716	1.553	1.294	1.255	1.041	0.965	1.000	0.758	0.871	0.686	0.664	0.646	0.567	0.667	0.548	0.338	0.334	0.409	0.391	0.294	0.288	0.285	0.269	0.354	0.296	0.334	0.299	0.339	0.355	0.344	0.284	0.273	0.251	0.306	0.441	0.604	0.798	1.890	3.167	2.388	1.119	1.072	1.854	3.684	5.798	7.675	16.09	34.65	49.69	27.78	9.011	0.847	0.241	0.245	0.191	0.131	0.246	0.178
280.0	71.17	111.8	99.28	71.72	50.35	61.17	259.3	554.9	268.2	319.8	978.2	5643	8521	927.7	31.51	6.261	4.505	3.264	2.523	2.086	1.876	1.370	1.297	1.025	1.174	0.926	0.879	0.906	0.639	0.753	0.897	0.546	0.750	0.526	0.447	0.431	0.427	0.408	0.383	0.375	0.280	0.363	0.390	0.376	0.345	0.400	0.383	0.539	0.449	0.433	0.323	0.361	0.276	0.370	0.325	0.414	0.820	1.762	3.168	3.313	1.622	1.149	1.204	1.788	2.263	4.141	10.28	25.56	48.08	35.82	22.89	4.915	0.437	0.264	0.237	0.259	0.244
285.0	117.3	172.3	168.8	126.0	75.92	59.10	127.2	463.1	550.6	242.9	363.2	1701	7434	7232	132.4	13.64	5.402	3.833	3.127	2.616	1.926	1.642	1.447	1.225	1.205	1.020	0.821	1.076	0.714	0.703	0.677	0.762	0.708	0.594	0.590	0.578	0.461	0.513	0.397	0.378	0.316	0.352	0.313	0.425	0.359	0.560	0.531	0.741	0.704	0.585	0.479	0.501	0.411	0.362	0.384	0.475	0.499	0.881	1.632	2.942	3.648	2.686	1.500	1.142	1.300	1.727	3.062	6.767	16.11	31.83	53.89	32.90	15.77	1.999	0.317	0.220	0.203
290.0	186.1	267.1	292.5	223.1	140.3	110.4	134.7	267.5	586.7	668.6	413.9	638.5	2200	5814	6558	1718	36.10	5.719	3.978	3.052	2.361	1.850	1.565	1.394	1.146	1.184	1.018	0.879	0.820	0.799	0.737	0.845	0.681	0.675	0.680	0.670	0.605	0.428	0.484	0.382	0.445	0.401	0.376	0.473	0.549	0.671	0.806	1.020	1.062	0.990	0.973	0.923	0.792	0.641	0.620	0.646	0.780	0.864	1.090	1.410	2.309	3.315	3.892	3.379	2.294	1.854	2.058	2.848	4.842	8.630	17.79	26.53	38.66	37.14	22.20	11.10	1.980
295.0	246.2	362.1	426.2	333.4	226.0	175.4	199.1	265.1	406.9	808.8	943.0	616.0	848.1	1543	3726	8163	726.6	39.25	5.773	4.103	2.899	2.470	1.867	1.498	1.415	1.245	1.078	1.153	0.860	0.870	0.814	0.819	0.873	0.798	0.643	0.658	0.685	0.652	0.544	0.472	0.424	0.472	0.560	0.574	0.713	0.785	1.137	1.237	1.502	1.443	1.313	1.290	1.174	1.049	0.891	0.866	1.085	1.205	1.237	1.291	1.773	2.189	2.802	4.522	5.260	4.704	2.860	2.638	3.149	3.687	5.612	7.094	9.958	14.12	32.13	53.87	34.03
300.0	259.3	431.6	495.8	414.6	285.1	237.9	271.4	325.1	425.3	662.8	1232	953.2	662.0	650.9	1093	5312	6005	558.7	18.69	5.692	3.756	3.075	2.500	1.868	1.544	1.461	1.155	1.220	0.990	0.934	1.030	0.838	0.901	0.782	0.676	0.805	0.763	0.558	0.544	0.510	0.488	0.515	0.615	0.607	0.708	0.893	1.085	1.523	1.605	1.638	1.596	1.592	1.302	1.347	1.209	1.224	1.351	1.652	1.487	1.627	1.969	2.076	2.554	3.322	4.539	6.722	6.188	4.086	3.193	3.148	3.261	3.199	3.559	4.343	9.024	22.98	45.29
305.0	277.3	441.9	544.4	459.7	340.5	303.2	336.6	394.8	510.9	660.6	1086	1402	826.7	541.0	479.2	1563	6121	4999	80.82	9.713	5.107	3.282	2.644	2.176	1.664	1.593	1.323	1.239	1.001	1.072	0.968	0.973	0.728	0.700	0.698	0.750	0.709	0.616	0.646	0.519	0.506	0.402	0.673	0.677	0.722	1.062	1.244	1.737	1.868	1.654	1.609	1.818	1.493	1.444	1.475	1.300	1.658	1.690	1.862	2.246	2.318	2.487	2.808	3.280	3.842	5.067	6.712	6.872	5.209	3.933	3.182	2.695	2.476	2.552	3.080	6.178	13.52
310.0	286.7	465.5	573.2	495.7	388.2	360.9	407.5	491.3	599.5	747.1	966.4	1290	1290	741.0	441.2	542.7	1797	4648	5029	1324	24.77	5.055	3.609	2.609	2.032	1.623	1.521	1.360	1.166	1.126	0.964	0.922	0.771	0.757	0.762	0.710	0.757	0.623	0.609	0.623	0.479	0.493	0.635	0.678	0.769	1.144	1.306	1.682	1.891	1.725	1.717	1.862	1.756	1.566	1.546	1.590	1.830	2.048	2.275	2.497	2.727	3.016	3.250	3.671	4.260	4.531	5.173	5.904	6.621	6.692	5.176	3.772	2.785	2.492	2.334	2.567	4.000
315.0	303.0	472.9	574.5	516.5	435.9	437.4	494.0	581.6	692.8	832.3	992.2	1130	1270	1190	616.4	405.0	595.1	1187	3168	6418	513.8	24.81	5.255	3.847	2.954	2.229	1.545	1.372	1.309	1.186	1.022	1.037	0.870	0.717	0.730	0.924	0.763	0.579	0.650	0.632	0.683	0.567	0.827	0.796	0.721	1.053	1.311	1.789	1.975	1.821	1.809	2.019	1.822	1.822	1.945	2.055	2.312	2.334	2.675	3.017	3.061	3.341	3.444	4.348	4.528	5.038	4.867	5.098	5.414	5.800	6.887	6.465	4.745	3.108	2.638	2.284	2.469
320.0	323.1	487.9	621.4	552.7	484.7	491.6	558.5	663.3	769.3	894.9	1063	1148	1174	1294	938.0	479.1	398.1	435.5	909.7	4446	4267	402.7	11.71	4.921	3.403	2.653	1.997	1.750	1.586	1.302	1.052	1.209	0.941	0.910	0.812	0.814	0.775	0.661	0.641	0.628	0.617	0.642	0.656	0.778	0.808	1.122	1.516	1.947	2.151	1.904	1.893	2.276	2.105	2.057	2.131	2.414	2.601	2.708	3.014	3.131	3.360	3.758	4.086	4.562	4.852	5.087	4.931	5.369	5.325	5.589	5.716	6.457	6.687	5.618	3.871	2.644	2.690
325.0	342.3	536.2	715.5	631.4	533.7	553.4	613.6	721.2	831.7	967.5	1123	1202	1188	1171	1173	680.7	419.4	319.1	345.3	1336	4867	3717	60.76	8.275	4.118	3.350	2.232	1.775	1.510	1.580	1.235	1.280	1.084	0.889	0.836	0.706	0.714	0.736	0.690	0.660	0.562	0.613	0.653	0.833	0.793	1.184	1.554	1.970	2.285	2.262	2.122	2.360	2.159	2.338	2.462	2.603	2.776	2.984	3.106	3.412	3.690	3.959	4.168	4.652	5.008	5.175	5.214	5.508	5.556	5.897	5.457	5.683	6.283	6.960	6.178	4.125	3.310
330.0	358.5	604.5	823.9	775.8	668.9	644.0	689.2	782.3	896.7	1037	1185	1283	1267	1165	1092	964.3	624.8	375.7	277.8	433.9	1455	3727	4050	1111	19.52	4.781	3.077	2.235	1.871	1.641	1.601	1.338	1.153	0.996	0.928	0.765	0.761	0.636	0.643	0.683	0.561	0.668	0.684	0.788	0.984	1.330	1.589	2.230	2.648	2.537	2.641	3.010	2.586	2.800	2.732	2.919	3.158	3.334	3.538	3.760	4.010	4.504	4.598	5.032	5.174	5.390	5.809	5.846	5.949	6.195	6.009	5.879	5.813	6.022	6.084	6.170	5.446
335.0	393.0	673.7	903.1	928.4	807.1	756.4	768.3	843.6	965.6	1097	1244	1351	1344	1236	1084	954.1	929.5	561.0	345.8	296.8	448.3	940.8	2783	5572	421.8	21.54	4.526	3.306	2.284	2.003	1.804	1.357	1.124	0.983	1.095	0.913	0.817	0.746	0.610	0.637	0.611	0.909	0.649	0.740	0.987	1.319	1.713	2.315	2.799	3.014	3.009	3.410	3.120	3.248	3.544	3.415	3.777	3.595	3.998	3.938	4.174	4.787	4.782	5.341	5.546	5.982	6.050	6.180	6.399	6.418	6.554	6.297	6.009	6.102	5.962	5.648	6.028
340.0	375.8	680.5	962.5	985.2	881.2	842.1	832.5	902.5	1003	1134	1265	1397	1384	1297	1114	937.5	930.6	772.3	442.6	310.2	264.5	313.6	789.6	4004	3524	348.2	10.26	4.340	2.832	2.178	1.947	1.577	1.196	1.241	0.960	0.943	0.836	0.724	0.658	0.710	0.735	0.804	0.742	0.790	0.991	1.415	1.698	2.317	3.064	3.090	3.385	3.687	3.476	3.680	3.884	3.397	3.892	3.768	4.216	4.279	4.651	4.801	5.129	5.397	5.769	6.075	6.073	6.212	6.466	6.480	6.443	6.308	6.453	6.195	5.727	5.708	5.517
345.0	373.4	672.6	983.9	1027	962.0	894.0	878.0	926.8	1011	1161	1274	1402	1390	1323	1157	965.6	856.4	869.2	611.6	371.9	263.3	210.7	274.4	1208	4193	3163	53.03	6.934	3.639	2.599	2.164	1.790	1.421	1.272	1.152	0.961	0.906	0.838	0.704	0.710	0.638	0.737	0.657	0.770	0.956	1.414	1.821	2.502	2.966	3.097	3.260	3.948	3.908	3.780	3.946	3.852	4.210	3.965	4.225	4.388	4.894	5.080	5.104	5.574	5.807	6.044	6.010	6.193	6.619	6.551	6.687	6.374	6.664	6.012	5.930	5.743	5.233
350.0	358.5	665.3	965.3	1068	1034	970.5	940.8	965.0	1039	1176	1290	1386	1395	1341	1200	1012	878.4	814.6	778.0	559.6	355.0	260.9	216.5	377.0	1268	3137	3331	913.2	18.54	3.886	2.805	2.001	1.465	1.330	1.167	1.006	0.914	0.843	0.728	0.659	0.660	0.692	0.786	0.803	0.989	1.412	1.757	2.511	2.914	3.188	3.498	4.175	4.133	4.036	4.210	4.054	4.241	4.351	4.463	4.453	4.694	4.932	5.103	5.447	5.702	5.781	6.013	6.251	6.484	6.524	6.862	6.450	6.681	6.494	6.275	5.906	5.668
355.0	349.0	639.0	934.7	1083	1077	1032	1012	1014	1071	1194	1295	1372	1393	1350	1227	1083	953.6	851.7	774.0	761.3	545.8	359.7	273.4	246.9	395.6	799.6	2241	4343	389.6	19.96	3.712	2.792	1.878	1.609	1.324	0.994	0.894	0.872	0.647	0.632	0.657	0.701	0.895	0.872	1.048	1.353	1.592	2.405	2.968	3.070	3.514	4.253	4.139	4.356	4.280	4.290	4.454	4.466	4.702	4.752	4.766	5.344	5.007	5.720	5.974	5.834	5.965	6.234	6.404	6.493	6.529	6.651	6.374	6.609	6.490	5.935	6.406
360.0	342.7	617.9	916.6	1084	1112	1096	1076	1063	1124	1211	1302	1358	1383	1346	1248	1125	1010	903.3	798.6	781.7	722.1	476.5	341.8	267.0	237.8	279.4	641.3	3144	3267	326.9	9.615	3.844	2.247	1.793	1.421	1.088	0.892	0.884	0.806	0.793	0.688	0.804	0.833	0.777	1.022	1.350	1.705	2.446	2.857	2.991	3.353	4.186	4.560	4.737	4.715	4.766	4.965	4.836	4.863	4.852	4.870	5.390	5.458	5.658	5.993	5.975	6.237	6.183	5.988	6.543	6.502	7.002	6.523	6.730	6.762	6.764	6.343
365.0	363.6	635.0	925.8	1095	1150	1129	1109	1093	1155	1232	1313	1367	1381	1348	1271	1156	1055	957.8	861.3	781.8	787.3	642.6	434.6	326.3	247.9	194.7	233.1	956.5	3684	2954	50.52	7.204	3.307	2.019	1.469	1.213	1.062	1.050	0.919	0.734	0.744	0.749	0.798	0.982	1.122	1.217	1.658	2.448	2.803	2.954	3.438	4.327	4.433	4.861	4.706	4.840	4.960	4.916	4.935	5.166	4.930	5.594	5.649	5.564	5.834	5.757	5.911	6.307	6.125	6.424	6.840	7.018	6.606	7.050	6.935	6.731	6.288
370.0	361.3	609.5	921.5	1102	1182	1194	1171	1157	1189	1254	1333	1377	1394	1359	1283	1196	1120	1043	954.5	866.3	801.1	771.3	621.2	440.9	328.0	243.8	195.2	313.6	1117	2910	3132	848.7	18.25	4.296	2.184	1.669	1.229	1.114	0.947	0.780	0.833	0.768	0.778	0.848	1.088	1.356	1.687	2.284	2.776	3.011	3.434	4.351	4.705	5.050	4.969	4.871	5.429	5.052	5.123	5.376	5.176	5.600	5.570	5.828	6.149	5.857	5.933	6.087	6.244	6.461	6.764	6.820	6.962	6.936	7.011	6.856	6.598
375.0	340.8	628.3	915.5	1133	1220	1248	1207	1192	1220	1289	1358	1397	1426	1385	1296	1233	1163	1111	1042	960.3	874.0	805.5	777.6	638.7	443.3	340.2	269.5	240.8	365.7	765.8	2182	4036	341.3	20.62	4.131	2.207	1.602	1.296	0.931	1.024	0.901	0.807	0.839	0.900	1.251	1.347	1.626	2.441	2.747	3.147	3.708	4.488	4.631	5.038	5.440	5.161	5.562	5.249	5.347	5.354	5.213	5.963	5.615	6.243	6.287	5.944	6.192	6.011	6.745	7.103	7.041	6.780	6.842	6.853	7.134	6.969	7.024
380.0	359.2	607.5	933.2	1137	1265	1287	1259	1228	1251	1306	1380	1411	1450	1388	1296	1246	1204	1154	1101	1022	932.7	850.2	810.3	779.2	568.9	424.9	346.1	281.3	244.3	296.4	687.0	3010	2820	273.0	9.350	3.478	2.017	1.469	1.250	1.095	0.955	0.836	0.908	1.012	1.131	1.304	1.511	2.240	2.788	2.974	3.530	4.603	5.075	5.380	5.533	5.388	5.812	5.146	5.510	5.590	5.366	5.716	5.838	5.997	6.037	6.011	6.124	6.191	6.606	6.675	7.432	6.816	6.712	6.561	6.940	7.045	7.447
385.0	366.7	614.9	906.1	1153	1293	1310	1274	1244	1272	1306	1386	1414	1469	1389	1302	1248	1222	1189	1134	1070	989.2	900.0	827.4	816.3	706.2	505.4	418.6	342.0	257.4	226.5	304.7	976.2	3086	2426	41.78	5.947	2.913	2.011	1.417	1.168	1.015	0.849	0.914	1.099	1.183	1.360	1.736	2.315	2.864	3.001	3.629	4.952	4.924	5.189	5.384	5.553	5.724	5.519	5.783	5.768	5.745	5.732	5.855	6.190	6.113	5.967	5.715	6.128	6.634	6.895	7.157	6.922	6.811	6.853	6.835	6.625	7.409
390.0	356.1	630.5	909.7	1151	1294	1322	1289	1247	1269	1292	1356	1377	1414	1365	1295	1245	1229	1206	1161	1111	1038	961.8	884.1	821.2	771.1	658.2	505.0	402.7	306.0	246.6	235.0	346.1	932.5	2250	2338	625.2	14.27	3.230	1.889	1.484	1.092	0.985	1.028	1.133	1.202	1.366	1.807	2.332	2.857	2.923	3.619	4.889	5.044	5.353	5.558	5.540	5.536	5.629	5.756	5.651	5.711	5.894	5.742	5.981	5.899	5.972	5.897	5.906	6.420	6.666	7.012	6.516	6.980	6.436	6.942	6.998	7.393
395.0	375.2	602.1	927.3	1130	1285	1331	1293	1274	1261	1281	1330	1352	1381	1342	1273	1227	1215	1205	1184	1131	1078	1011	939.4	858.3	785.1	743.5	654.9	486.2	377.2	304.4	263.5	237.0	300.7	574.5	1525	2544	287.2	15.43	3.072	2.020	1.385	1.116	1.031	1.105	1.257	1.363	1.758	2.248	2.722	3.216	3.603	4.610	5.079	5.300	5.548	5.414	5.755	5.503	5.795	5.508	5.853	5.850	5.699	5.836	6.031	6.104	5.710	6.088	6.086	6.416	6.886	6.251	6.794	6.599	6.777	7.090	6.903
400.0	388.3	608.3	936.6	1158	1289	1338	1296	1268	1253	1275	1314	1332	1363	1312	1248	1211	1208	1201	1183	1140	1089	1033	967.7	898.0	815.4	753.9	739.4	594.2	440.4	360.3	312.1	247.2	182.5	196.3	433.1	1889	2309	237.3	7.668	2.796	1.843	1.284	1.071	1.147	1.341	1.513	1.771	2.107	2.804	3.087	3.434	4.381	5.154	5.482	5.680	5.879	5.926	5.521	5.595	5.883	6.071	5.823	5.667	5.775	5.836	5.834	5.637	6.069	6.244	6.556	6.444	6.227	6.700	6.786	6.528	7.119	6.964
405.0	389.3	631.3	915.0	1148	1269	1331	1283	1264	1256	1267	1308	1302	1339	1289	1233	1194	1182	1189	1171	1130	1093	1042	985.8	920.2	846.9	770.1	754.3	685.5	517.1	411.4	353.8	278.8	180.0	129.8	152.2	563.8	2142	1980	37.80	4.885	2.465	1.673	1.388	1.273	1.302	1.591	1.817	2.453	2.709	3.021	3.483	4.622	5.139	5.304	5.573	5.623	5.805	5.529	5.925	5.657	5.656	5.492	5.523	5.713	5.885	5.779	5.831	5.936	5.970	5.809	6.618	6.186	6.541	6.599	6.410	6.393	7.279
410.0	364.9	596.3	883.5	1110	1260	1298	1270	1258	1247	1234	1275	1258	1275	1234	1187	1153	1147	1152	1139	1109	1075	1028	986.5	933.1	863.7	792.0	743.6	699.8	616.7	481.6	392.2	307.4	208.0	141.7	111.9	177.9	617.9	1604	1752	515.1	13.11	2.788	1.690	1.470	1.351	1.635	1.806	2.166	2.735	2.859	3.550	4.556	4.963	5.199	5.408	5.298	5.837	5.685	5.843	5.506	5.671	5.503	5.703	5.478	5.655	5.565	5.394	5.653	5.829	5.629	6.197	6.003	6.003	6.160	6.167	6.399	6.710
415.0	357.4	559.5	854.7	1082	1224	1262	1239	1246	1224	1216	1228	1211	1214	1172	1122	1103	1099	1101	1089	1070	1037	998.8	967.9	925.6	869.7	802.2	746.0	688.8	643.1	572.2	440.2	342.2	243.5	173.0	125.8	109.1	185.2	399.7	1014	2041	266.9	14.72	2.415	2.092	1.591	1.652	1.854	2.115	2.681	2.836	3.436	4.253	4.817	5.176	5.279	5.259	5.394	5.616	5.129	5.276	5.431	5.237	5.090	5.267	5.401	5.645	5.217	5.211	5.631	5.280	5.701	5.712	5.678	5.941	5.973	5.938	6.791
420.0	325.5	549.7	840.1	1038	1175	1239	1224	1220	1189	1179	1190	1174	1160	1126	1087	1067	1046	1054	1045	1027	997.2	972.2	941.7	907.9	866.6	805.3	754.1	689.1	633.3	605.1	500.0	373.1	273.6	198.4	146.4	108.0	100.1	129.1	279.5	1305	1822	226.4	7.580	2.403	1.935	1.810	1.807	2.144	2.551	2.854	3.333	4.044	4.546	5.115	5.185	5.266	5.283	5.305	5.428	5.340	5.406	5.198	5.364	5.090	5.266	5.201	4.958	5.112	5.230	5.143	5.221	5.254	5.469	5.740	5.635	5.759	6.167
425.0	314.7	532.1	781.1	1003	1142	1193	1195	1194	1169	1165	1153	1145	1129	1090	1047	1017	1010	1014	1001	980.6	962.4	937.0	919.7	892.3	852.7	804.0	754.3	695.5	636.8	602.0	550.0	418.6	300.5	224.1	167.2	123.8	92.93	77.30	94.87	371.9	1478	1558	36.21	4.680	2.413	2.049	2.012	2.172	2.447	2.794	3.017	4.185	4.631	5.024	4.781	5.079	5.521	5.260	5.436	5.194	5.202	5.214	5.216	5.423	5.377	4.977	5.313	5.101	5.069	5.120	5.402	5.618	5.216	5.295	5.505	5.328	5.856
430.0	331.8	511.2	766.7	962.7	1119	1167	1175	1166	1154	1139	1125	1105	1078	1039	992.3	964.7	951.7	955.7	946.8	930.0	915.4	893.6	881.8	864.2	833.1	791.7	750.7	702.2	646.0	596.4	550.2	479.0	349.8	260.1	198.7	149.3	111.9	83.31	67.20	114.7	410.3	1116	1347	469.8	13.45	2.913	2.290	2.456	2.520	2.760	3.051	3.992	4.196	4.859	4.780	5.088	5.507	5.105	5.379	5.334	5.127	5.237	5.056	5.118	5.235	5.141	5.087	4.812	4.920	5.060	4.769	5.368	5.129	5.028	5.266	5.246	5.402
435.0	362.8	503.9	725.8	929.1	1081	1110	1152	1144	1124	1121	1090	1067	1039	986.2	938.9	914.7	897.7	896.5	887.8	885.9	863.7	848.9	840.5	827.5	809.0	776.9	738.5	701.4	652.9	601.3	544.1	494.2	412.6	303.4	231.8	179.9	138.2	103.9	76.27	69.16	123.0	275.2	691.7	1677	259.3	17.65	3.257	2.814	2.457	2.724	3.207	3.966	4.046	4.312	4.614	4.927	5.175	5.124	5.081	5.080	5.175	5.293	4.865	5.234	4.955	4.910	4.827	4.556	4.991	4.822	4.864	4.940	4.920	4.803	4.955	5.421	4.978
440.0	459.0	496.0	701.9	899.4	1038	1081	1118	1119	1102	1105	1073	1042	1002	945.6	898.1	875.0	859.0	853.5	846.0	837.6	823.5	811.7	810.7	795.0	779.4	756.4	729.5	696.6	652.6	609.2	547.3	484.5	430.2	348.7	256.8	200.6	158.1	117.7	90.48	68.49	66.15	89.40	188.7	972.7	1617	228.8	11.17	3.650	2.939	2.875	3.159	3.874	4.047	4.191	4.606	4.781	4.955	5.149	5.204	4.871	4.960	5.122	4.978	5.081	4.678	4.854	4.812	4.608	4.843	4.600	4.469	4.665	4.664	4.392	4.997	5.184	4.721
445.0	449.6	553.5	661.3	876.5	986.6	1043	1098	1096	1078	1064	1041	1014	953.4	916.3	860.2	826.3	813.6	807.9	802.6	790.5	778.6	770.7	772.4	760.2	751.9	731.7	707.7	680.3	648.6	605.8	549.6	479.8	423.2	376.8	285.0	218.4	172.8	132.0	102.7	76.85	60.31	52.96	66.41	268.0	1180	1469	169.5	6.741	3.435	3.011	3.228	3.892	3.971	4.378	4.725	4.739	4.990	5.220	4.936	4.700	4.987	4.849	4.992	4.762	4.427	4.651	4.534	4.518	4.499	4.455	4.452	4.638	4.425	4.628	4.654	4.942	4.847
450.0	353.3	732.2	675.2	805.8	922.1	999.5	1037	1039	1034	1017	1000	960.1	905.3	857.7	799.8	766.4	744.7	741.5	733.3	724.2	713.8	710.7	713.4	703.9	700.9	687.6	670.5	647.6	628.2	590.4	543.3	476.2	411.4	366.8	315.9	244.8	188.1	149.2	117.2	90.44	69.68	53.82	45.17	82.97	318.3	933.5	1240	471.6	13.80	3.616	3.137	3.761	3.873	4.242	4.307	4.398	4.685	4.687	4.714	4.605	4.913	4.874	4.832	4.645	4.315	4.520	4.410	4.234	4.134	4.110	4.113	4.295	4.152	4.466	4.209	4.561	4.538
455.0	256.3	725.4	889.6	743.5	861.4	923.6	959.4	978.7	967.9	959.8	938.1	894.0	844.5	788.9	739.8	702.2	678.7	670.7	660.1	654.3	649.4	644.2	646.7	645.9	641.0	628.6	620.4	608.7	588.6	564.3	521.6	465.2	402.6	350.2	311.7	271.6	207.5	160.0	129.1	101.1	80.33	61.87	47.76	47.07	92.20	226.3	518.9	1377	627.7	17.49	4.014	3.890	3.770	3.962	4.011	4.414	4.557	4.255	4.452	4.618	4.640	4.216	4.215	4.559	4.247	4.248	3.940	4.045	3.929	3.955	3.937	3.998	4.053	3.959	3.986	4.137	3.961
460.0	239.6	552.1	1194	782.1	805.0	859.7	903.8	923.1	931.8	910.2	886.4	841.5	783.7	735.9	692.5	645.6	627.5	614.5	611.2	602.8	593.5	594.2	591.8	593.8	593.8	590.4	576.7	571.1	558.9	541.4	501.6	449.8	393.6	337.3	298.2	273.5	227.2	169.7	135.9	107.6	86.68	67.29	52.12	42.71	44.71	68.83	135.1	695.4	1353	190.2	12.84	4.317	3.848	3.984	3.999	4.146	4.194	4.104	4.352	4.581	4.216	4.327	4.035	4.174	4.009	4.162	3.631	3.700	3.858	3.658	3.579	3.664	3.718	3.413	3.561	3.239	3.747
465.0	199.3	411.0	1234	956.9	739.8	806.9	853.4	882.3	877.0	869.2	844.6	791.1	746.9	693.4	647.6	599.8	582.1	570.0	559.4	557.1	548.7	549.2	545.1	548.9	555.0	547.1	541.4	535.6	524.7	512.7	481.0	433.2	381.5	330.4	289.1	258.5	231.9	181.9	140.3	114.6	90.99	72.09	56.85	45.90	37.86	36.52	46.59	184.4	849.3	1125	162.6	8.847	4.292	3.851	3.875	3.810	4.098	3.940	4.110	4.279	4.266	4.225	3.840	4.055	3.773	3.787	3.506	3.561	3.526	3.565	3.389	3.499	3.424	3.398	3.338	3.422	3.694
470.0	180.2	316.5	846.5	1464	828.0	738.1	781.7	794.3	796.0	797.4	772.2	732.3	686.6	630.7	584.8	542.2	525.3	510.4	501.1	491.9	485.4	488.3	485.8	490.4	493.1	490.8	489.9	485.9	478.1	467.9	440.1	403.1	356.9	313.7	272.8	238.5	216.8	190.6	149.8	117.0	94.63	76.45	62.17	49.88	40.19	32.64	29.65	55.99	221.3	632.6	867.8	373.9	15.17	4.693	3.921	3.654	3.733	3.771	3.841	3.919	3.917	3.885	3.491	3.721	3.555	3.469	3.331	3.210	3.195	3.182	3.073	3.219	3.160	3.306	3.033	3.120	3.179
475.0	167.4	277.2	493.4	1409	1311	695.5	706.2	720.7	727.6	718.2	704.0	670.1	615.9	569.2	527.8	489.8	468.2	457.3	447.2	436.6	429.4	430.2	429.5	431.6	433.7	437.4	437.2	431.7	429.7	424.0	404.1	371.1	329.4	293.1	254.5	223.7	196.2	179.5	157.2	123.4	96.23	79.87	65.92	53.80	43.46	35.55	29.07	30.06	63.86	153.8	327.6	861.3	225.6	20.74	4.558	3.761	3.742	3.263	3.668	3.425	3.644	3.496	3.492	3.283	3.217	3.202	2.952	3.082	3.151	2.859	3.034	2.950	2.824	2.894	2.813	2.704	2.775
480.0	159.0	267.5	379.1	974.2	1798	771.1	658.3	677.7	677.0	669.2	659.5	627.1	573.5	536.7	485.8	453.2	431.9	420.1	412.6	401.6	392.6	392.9	391.2	395.8	395.6	400.8	399.6	398.6	397.8	391.9	380.7	346.9	313.1	277.1	245.2	216.6	188.3	167.6	155.5	129.8	100.7	81.21	67.28	55.84	46.47	39.06	31.02	27.30	30.88	47.77	87.50	396.7	895.1	217.1	14.33	4.230	3.763	3.414	3.512	3.262	3.173	3.173	3.190	3.075	2.960	2.916	2.796	2.774	2.878	2.820	2.831	2.867	2.670	2.592	2.375	2.905	2.727
485.0	157.6	266.0	350.3	623.9	1847	1135	622.9	636.4	636.0	631.8	629.7	595.1	545.7	505.3	454.9	422.7	405.8	392.1	384.4	374.4	363.2	357.7	361.4	368.3	369.3	373.8	371.3	372.7	372.6	369.4	355.7	329.1	297.8	264.7	237.1	207.5	182.2	158.7	148.2	133.8	104.7	83.86	69.73	56.81	49.66	41.17	34.58	28.68	25.20	25.79	33.26	108.0	537.1	881.3	175.5	9.188	4.085	3.591	3.514	3.294	2.909	2.982	3.069	3.158	2.862	2.831	2.815	2.839	2.780	2.538	2.663	2.643	2.412	2.436	2.373	2.678	2.595
490.0	131.0	254.8	327.4	460.7	1173	1786	756.3	580.0	591.5	587.3	585.2	549.0	507.2	463.2	417.8	387.7	371.6	358.5	349.5	338.0	330.8	325.3	328.1	332.0	333.9	337.7	334.9	340.5	342.0	340.6	327.1	302.8	275.0	247.9	222.1	197.3	175.0	153.6	137.2	125.4	112.3	88.92	70.92	59.91	51.85	43.48	37.15	31.33	26.39	23.28	22.53	37.26	141.0	450.3	736.8	359.7	17.11	4.223	3.482	3.249	3.009	2.809	2.935	2.829	2.661	2.723	2.588	2.519	2.524	2.422	2.410	2.465	2.461	2.468	2.223	2.416	2.209
495.0	124.2	222.0	306.4	376.1	612.8	1722	1340	551.3	547.8	552.3	531.9	504.8	465.1	422.4	377.4	345.5	332.0	322.2	314.1	303.7	295.7	289.3	291.4	294.7	295.1	297.2	302.2	301.2	304.5	305.9	296.1	273.8	253.8	229.8	205.4	184.8	165.4	144.2	129.3	113.4	106.7	94.26	74.50	62.63	52.75	44.87	38.72	33.88	28.80	24.49	21.91	22.72	43.58	111.7	274.2	785.2	544.7	23.17	3.904	3.095	3.122	2.811	2.613	2.570	2.448	2.525	2.369	2.206	2.072	2.483	2.037	2.250	2.365	2.196	2.002	2.039	1.968
500.0	100.7	191.1	315.2	355.6	454.8	1120	1925	630.1	498.8	502.0	489.8	470.7	425.3	384.4	351.2	320.5	303.0	296.6	284.8	276.2	266.9	263.0	265.0	268.5	267.4	271.8	273.5	276.2	279.4	279.8	272.5	251.9	236.6	212.8	193.2	173.3	156.0	136.2	122.5	106.0	97.55	92.75	77.90	63.03	52.78	45.63	39.88	35.15	30.00	25.86	22.15	20.81	23.21	36.55	72.10	341.2	901.7	238.7	16.01	3.352	2.979	2.703	2.474	2.721	2.648	2.450	2.240	2.168	2.086	2.086	1.898	2.082	1.955	1.992	1.880	2.135	1.994
505.0	94.33	164.9	295.2	331.1	380.9	655.0	2050	992.3	469.3	461.5	452.7	434.4	391.4	358.9	319.6	294.5	278.7	268.2	258.9	255.8	244.8	238.2	242.6	243.5	245.1	246.4	249.2	253.0	255.9	255.4	250.3	232.5	216.4	198.4	178.7	161.0	144.5	128.5	114.2	100.9	89.60	84.86	79.56	65.41	52.65	45.78	40.05	34.59	29.78	26.37	23.31	20.76	18.89	20.20	25.75	89.36	463.9	843.6	196.7	8.677	2.910	2.844	2.374	2.640	2.259	2.276	2.119	2.015	1.967	1.824	1.783	1.870	1.792	1.792	1.836	1.837	1.933
510.0	84.21	135.9	248.3	341.9	342.9	424.2	1253	1802	567.1	414.0	406.1	388.9	352.6	317.1	288.5	262.9	247.5	237.2	229.2	225.0	215.5	210.5	213.1	213.8	216.4	216.6	217.7	222.1	224.6	224.6	219.1	207.2	190.6	176.5	160.4	145.9	132.1	118.3	105.7	93.47	83.32	75.96	72.68	67.37	54.46	45.26	39.57	34.57	29.88	26.42	23.97	20.84	18.41	16.43	16.15	28.77	117.9	390.0	602.8	294.9	16.62	2.985	2.461	2.430	2.084	1.924	1.987	1.900	1.779	1.603	1.752	1.702	1.756	1.551	1.577	1.542	1.704
515.0	68.28	116.9	191.3	312.0	319.7	327.0	566.2	1882	1146	383.4	357.1	337.8	304.7	283.1	253.8	232.6	216.6	209.7	201.9	195.5	189.2	181.9	183.4	186.1	185.7	187.9	191.7	191.5	193.7	196.6	193.5	184.1	167.0	155.2	141.2	128.8	119.6	105.6	96.64	87.04	77.11	68.33	63.06	62.56	56.89	45.96	38.63	33.14	29.46	25.82	23.74	21.35	18.52	16.03	14.10	15.55	33.94	93.47	201.1	586.8	252.5	22.08	2.512	2.245	1.881	1.768	1.814	1.553	1.562	1.458	1.638	1.424	1.513	1.460	1.465	1.454	1.602
520.0	60.53	97.95	164.3	273.2	321.1	288.2	362.6	1219	1870	436.0	330.0	302.5	279.0	255.7	229.2	207.8	192.6	189.5	180.1	176.8	167.6	164.4	162.9	164.9	167.5	167.4	172.8	172.8	174.6	176.0	174.7	165.4	150.9	139.3	130.6	118.2	108.6	97.56	88.02	80.24	72.25	62.95	57.40	56.27	56.14	47.29	38.20	32.86	28.31	25.25	22.98	20.50	18.34	16.09	14.35	12.63	15.05	27.47	50.93	242.4	602.6	228.1	14.53	2.293	1.885	1.727	1.786	1.492	1.586	1.266	1.550	1.344	1.415	1.243	1.196	1.442	1.385
525.0	56.09	98.62	145.7	226.8	317.2	264.6	294.5	610.2	2184	769.0	296.1	274.2	254.8	230.5	207.8	191.1	177.2	170.5	163.5	158.7	151.5	149.2	148.2	148.4	152.8	148.1	152.8	154.4	159.4	159.4	156.0	148.4	138.2	127.6	118.9	108.2	97.97	90.02	81.02	73.27	66.88	59.75	53.44	49.86	49.87	46.86	37.90	31.14	28.07	24.85	22.06	19.79	17.71	16.00	13.82	12.02	11.26	12.69	16.57	61.08	302.8	583.2	179.7	6.601	2.004	1.769	1.502	1.464	1.353	1.236	1.368	1.305	1.222	1.185	1.212	1.365	1.264
530.0	49.89	88.13	124.8	177.2	276.3	264.7	247.7	332.2	1357	1701	372.1	244.3	224.2	203.6	183.6	167.6	156.5	149.3	143.3	139.4	134.1	127.8	128.1	129.5	131.3	129.5	132.5	134.4	137.8	139.5	134.9	130.0	121.0	111.9	104.3	96.13	87.70	79.73	72.25	66.42	59.60	53.95	48.67	44.93	42.94	42.97	38.51	30.58	26.45	23.88	20.74	18.76	17.41	15.73	13.36	11.63	10.11	9.039	8.813	17.86	75.58	259.5	428.5	218.0	15.17	2.030	1.491	1.380	1.248	1.164	1.143	1.090	1.117	1.135	1.067	1.023	1.024
535.0	42.89	74.68	106.3	145.1	209.2	275.9	216.3	239.9	526.9	1953	914.0	218.1	196.0	177.6	160.1	146.1	131.6	127.4	124.5	120.2	113.6	108.3	109.1	110.1	110.9	111.5	113.4	112.9	118.1	117.6	116.9	111.0	102.7	96.49	89.86	82.59	76.26	68.79	64.48	57.23	53.03	48.69	43.40	40.02	36.97	35.96	35.57	31.38	25.01	21.26	19.40	17.34	15.60	13.95	13.04	11.18	9.354	8.186	6.763	8.545	20.30	60.89	135.7	404.1	243.4	19.50	1.515	1.198	1.241	1.065	0.954	1.027	0.897	0.880	1.027	0.998	0.998
540.0	45.35	63.75	99.98	126.4	165.4	253.7	210.3	205.0	274.4	1240	1714	241.1	174.2	158.8	141.7	128.3	115.8	113.4	108.9	107.2	100.6	97.00	95.95	97.89	97.62	98.16	98.09	100.1	101.7	103.5	101.1	98.08	90.95	85.43	78.35	72.89	68.01	61.81	57.58	51.16	47.81	43.80	40.05	36.42	33.58	31.25	30.61	30.07	24.90	20.44	18.21	16.25	14.75	12.63	12.08	11.21	9.596	7.887	6.502	6.064	8.091	16.52	33.40	160.1	436.6	200.9	11.43	1.290	1.219	1.164	0.967	1.063	1.009	0.743	0.864	0.822	0.953
545.0	45.75	62.41	87.45	109.5	138.6	209.8	222.9	179.4	200.0	552.4	2122	493.9	156.0	140.3	127.5	111.3	104.4	100.9	96.85	93.88	88.83	86.65	86.16	86.11	84.63	86.41	86.27	89.99	90.72	91.28	90.64	86.27	79.27	75.55	69.74	64.52	59.66	55.28	52.58	47.09	42.98	38.72	35.91	32.85	31.03	27.87	26.70	27.21	25.28	20.15	16.89	15.12	13.90	11.99	11.06	10.31	9.384	7.659	5.996	5.454	5.165	6.588	10.06	39.61	204.5	404.4	136.8	4.619	1.280	1.065	0.921	1.008	0.985	0.691	0.729	0.756	0.697
550.0	35.23	53.36	76.31	93.78	112.9	149.0	215.0	160.7	159.0	242.6	1277	1384	174.6	118.6	106.0	96.06	88.80	83.49	80.92	77.52	75.82	72.28	71.79	70.95	70.03	72.01	72.05	74.16	75.79	75.91	75.83	72.92	66.82	62.90	58.57	54.52	50.53	46.68	43.77	40.46	36.82	33.25	30.56	28.10	26.44	23.90	22.48	21.85	22.03	19.15	15.46	13.55	12.08	10.60	10.10	9.148	8.354	7.115	5.712	4.855	4.147	4.289	4.626	11.01	49.71	168.2	284.4	138.3	13.61	1.135	0.911	0.874	0.799	0.608	0.671	0.633	0.707
555.0	38.25	45.80	64.05	82.65	94.10	113.8	174.9	168.1	127.3	149.6	423.0	1756	575.0	98.38	85.35	75.67	72.23	68.60	66.26	62.15	59.70	57.97	56.23	58.47	56.83	58.13	57.41	59.09	60.51	61.90	61.59	58.57	54.30	51.91	48.39	45.11	41.96	37.87	36.91	32.92	30.66	27.81	25.90	23.55	22.22	20.92	18.38	17.19	16.99	16.98	14.97	12.08	9.971	9.847	8.645	7.546	7.093	6.252	5.698	4.463	3.416	3.490	3.352	4.420	12.67	38.93	86.09	244.1	204.3	17.21	1.148	0.759	0.699	0.559	0.584	0.579	0.554
560.0	27.36	43.93	59.25	76.98	80.65	93.84	126.3	178.8	113.0	116.6	179.4	1147	1262	114.5	74.31	65.85	61.89	59.32	55.81	52.45	51.49	49.39	48.66	48.29	47.93	49.35	49.01	51.20	51.63	51.24	51.55	49.99	45.68	43.74	41.09	38.07	34.94	32.12	31.20	28.04	26.55	24.00	22.35	20.35	19.67	17.82	15.89	14.48	13.78	14.48	13.81	11.36	8.801	8.198	7.413	6.622	6.159	5.740	5.251	4.501	3.559	3.221	2.800	2.880	4.455	9.920	20.79	92.33	278.3	146.0	7.617	0.705	0.701	0.544	0.575	0.474	0.422
565.0	25.34	38.54	59.27	61.12	71.91	78.48	93.41	170.2	116.0	101.3	117.0	469.0	1697	173.0	64.29	56.38	52.55	51.35	47.44	45.65	44.67	41.04	41.52	40.89	40.54	40.68	41.71	42.92	43.56	44.11	43.40	42.40	38.85	37.29	35.16	31.99	30.44	27.87	26.67	24.84	22.31	21.11	19.44	17.90	16.54	15.38	14.09	12.71	11.64	11.65	11.79	10.73	8.665	7.356	6.616	6.120	5.456	4.859	4.748	4.122	3.228	2.816	2.453	2.289	2.419	3.487	5.854	22.49	121.4	252.7	35.55	3.060	0.652	0.569	0.495	0.446	0.497
570.0	29.60	43.63	57.54	56.81	60.00	63.57	70.47	124.8	134.3	90.47	93.14	174.5	1086	943.8	85.72	46.62	43.38	41.04	38.38	37.28	35.35	33.76	33.45	33.53	33.05	32.50	33.00	33.85	35.64	35.67	34.76	33.69	31.49	29.97	28.03	26.40	24.89	23.09	21.20	19.84	18.19	16.93	15.97	14.81	13.36	12.92	11.55	10.47	9.594	9.062	9.058	9.359	7.749	6.828	5.799	5.310	4.719	4.062	3.814	3.590	3.344	2.765	2.304	1.995	1.896	1.970	2.375	6.018	29.22	98.10	152.3	94.64	11.47	0.646	0.500	0.447	0.515
575.0	33.00	44.61	52.75	52.62	51.81	54.95	57.85	81.97	138.2	95.45	79.91	93.95	341.3	1352	345.6	38.75	35.12	32.92	31.07	29.74	28.58	27.91	26.53	26.79	26.56	26.50	26.74	26.50	27.88	28.19	27.63	26.79	24.67	23.87	21.65	20.65	20.18	18.41	17.02	15.52	14.99	13.29	13.10	11.95	10.98	10.34	9.480	8.795	7.886	7.295	6.813	7.078	7.227	6.291	4.974	4.455	3.976	3.444	2.963	3.196	2.959	2.898	2.108	1.844	1.551	1.479	1.503	2.258	7.432	22.75	44.51	137.5	121.7	13.33	0.511	0.513	0.372
580.0	33.60	40.20	52.39	54.02	46.36	47.01	53.48	60.23	122.1	112.9	74.48	75.29	125.3	891.7	858.8	49.11	30.28	28.51	26.78	26.09	23.52	23.44	22.15	23.18	22.39	22.48	22.77	22.59	23.23	23.08	23.12	21.88	20.61	20.36	19.01	17.71	16.63	15.44	14.90	12.91	12.59	11.74	11.30	10.32	9.507	8.668	8.066	7.694	6.761	6.461	5.805	5.356	6.154	5.845	4.618	3.714	3.530	3.112	2.845	2.680	2.400	2.629	2.274	1.815	1.405	1.333	1.240	1.375	2.471	5.857	10.67	48.33	152.9	87.52	6.171	0.423	0.382
585.0	35.20	44.31	55.15	50.23	46.08	44.33	50.83	51.63	94.81	129.3	76.82	71.53	73.54	350.9	1213	107.6	26.92	24.14	22.79	21.93	20.82	19.81	19.54	18.77	19.08	18.57	19.89	19.91	20.18	20.21	20.41	19.27	18.07	17.16	16.22	15.22	14.05	12.83	12.24	11.28	11.03	10.45	9.572	8.724	8.651	7.547	7.163	6.596	5.950	5.693	5.026	4.613	4.621	5.395	4.813	3.915	3.203	2.753	2.544	2.510	2.144	2.285	1.935	1.823	1.268	1.325	1.097	1.165	1.385	2.046	3.079	11.72	62.62	144.1	34.85	2.331	0.437
590.0	34.24	48.94	56.26	47.49	42.01	38.78	47.65	47.62	65.28	122.3	89.81	68.00	62.11	118.0	769.1	598.9	38.06	20.50	18.39	18.08	17.01	16.08	15.65	15.53	15.08	15.28	15.44	15.59	16.25	16.13	16.42	15.20	14.53	13.71	12.96	12.37	11.21	10.66	10.13	9.205	8.904	8.381	8.128	7.044	6.883	6.158	5.963	5.425	4.968	4.621	4.125	3.822	3.593	4.136	4.160	3.610	2.882	2.426	2.270	2.079	1.755	1.898	1.625	1.813	1.550	1.354	1.082	1.121	1.028	1.098	1.349	3.134	14.91	53.65	93.63	62.96	9.177
595.0	35.96	45.68	48.51	42.82	35.70	33.21	39.03	45.12	52.72	88.59	111.3	67.36	57.52	59.24	227.7	881.3	102.0	17.04	14.89	13.98	14.11	12.95	13.08	12.11	12.56	12.34	12.15	11.97	13.29	13.27	13.12	11.67	11.12	10.88	10.46	9.721	9.099	8.301	8.036	7.323	7.102	6.744	6.380	5.752	5.531	5.194	4.879	4.466	4.134	3.698	3.577	3.030	2.881	3.144	3.338	3.101	2.829	2.255	1.918	1.823	1.599	1.395	1.403	1.362	1.558	1.341	1.036	1.010	0.806	0.847	0.941	1.195	3.704	12.41	25.91	80.21	76.67
600.0	31.53	49.53	51.14	42.74	32.53	31.01	36.57	43.25	48.92	69.12	116.9	74.02	56.32	44.96	73.78	596.1	475.1	21.42	12.98	11.66	11.12	11.34	10.57	10.23	10.20	10.04	10.84	10.49	10.90	11.30	10.35	10.08	9.766	9.144	8.597	7.845	7.538	7.062	6.872	6.519	5.982	5.800	4.939	4.754	4.573	4.462	4.247	3.696	3.425	3.023	2.992	2.635	2.621	2.493	2.519	2.695	2.711	2.111	1.808	1.532	1.455	1.161	1.222	1.144	1.355	1.306	1.041	0.851	0.912	0.800	0.673	0.754	1.260	3.199	6.178	26.59	88.36
605.0	24.91	39.32	47.10	43.82	34.15	31.81	33.96	40.57	46.60	56.15	107.7	89.71	54.95	39.54	38.33	234.8	740.1	64.86	11.70	9.847	9.286	9.706	8.824	8.494	9.118	8.592	8.512	8.860	9.212	8.820	8.952	8.216	8.656	7.937	7.118	6.925	6.223	6.241	5.835	5.425	4.995	4.705	4.321	4.176	4.000	3.712	3.601	3.255	2.781	2.648	2.626	2.183	2.208	2.013	1.969	2.349	2.527	1.908	1.780	1.351	1.284	1.041	1.181	1.076	0.941	1.186	1.136	0.808	0.708	0.584	0.591	0.674	0.648	1.094	1.627	6.303	34.80
610.0	30.31	36.65	42.71	37.31	31.17	29.12	31.53	38.85	45.01	51.84	82.12	105.9	60.06	41.22	30.18	70.78	501.8	373.1	19.03	8.374	7.888	7.623	7.213	6.866	7.074	6.504	6.677	7.248	7.178	7.176	7.278	6.914	6.484	6.358	5.881	5.378	5.037	5.084	4.606	4.225	3.981	3.672	3.448	3.385	3.133	2.950	2.828	2.754	2.510	2.271	2.145	1.897	1.870	1.666	1.709	1.708	1.794	1.947	1.564	1.197	1.119	0.953	1.001	0.993	0.874	0.874	1.014	1.015	0.769	0.523	0.616	0.550	0.579	0.517	0.659	1.668	8.310
615.0	19.86	34.54	38.97	35.91	29.40	26.24	30.55	37.68	43.04	49.26	64.10	99.42	72.85	40.46	29.47	30.39	150.8	589.5	75.58	7.190	6.345	6.050	6.018	5.943	5.848	5.415	5.444	5.432	5.588	5.820	5.767	5.123	4.999	4.682	4.794	4.105	4.000	3.823	3.849	3.309	3.212	2.874	2.701	2.634	2.342	2.425	2.312	2.059	2.024	1.740	1.663	1.568	1.493	1.383	1.302	1.313	1.417	1.570	1.335	1.228	1.014	0.780	0.821	0.819	0.830	0.737	0.744	0.823	0.918	0.639	0.472	0.448	0.467	0.437	0.455	0.673	2.140
620.0	24.82	32.73	38.46	32.12	28.28	25.82	31.09	36.70	42.28	50.28	56.28	84.73	85.08	42.27	27.95	20.86	46.02	416.3	318.8	10.10	5.866	5.221	5.255	4.804	4.839	4.627	4.502	4.283	4.576	4.913	4.689	4.255	4.427	3.691	3.747	3.549	3.085	3.010	3.217	2.714	2.645	2.336	2.348	2.306	1.941	2.013	1.850	1.859	1.729	1.478	1.445	1.295	1.333	1.207	1.074	1.274	1.165	1.296	1.159	1.092	0.845	0.782	0.747	0.668	0.665	0.651	0.633	0.788	0.815	0.725	0.531	0.425	0.343	0.399	0.408	0.417	0.752
625.0	26.21	33.49	36.31	29.85	25.54	27.63	30.60	35.65	40.26	45.00	52.91	69.25	89.46	46.48	27.89	19.58	20.81	167.4	516.8	39.91	5.085	4.683	4.126	4.274	4.261	4.003	4.127	3.783	3.859	4.081	3.807	3.803	3.712	3.431	3.128	2.972	2.898	2.518	2.567	2.258	2.273	2.139	1.971	1.808	1.681	1.626	1.525	1.543	1.446	1.233	1.117	1.150	1.000	1.057	0.948	1.022	0.947	1.081	1.042	1.088	0.855	0.677	0.741	0.660	0.600	0.644	0.541	0.613	0.681	0.807	0.545	0.477	0.355	0.312	0.341	0.342	0.429
630.0	19.50	28.78	32.69	31.38	25.75	25.46	28.90	33.58	39.62	43.79	50.84	58.36	78.88	58.43	28.57	18.90	15.56	48.37	370.2	249.8	8.792	3.830	3.525	3.400	3.390	3.027	3.038	2.993	3.073	3.293	3.054	2.986	2.947	2.721	2.617	2.327	2.295	2.281	2.149	1.802	1.782	1.640	1.446	1.422	1.388	1.332	1.258	1.204	1.093	1.002	0.887	0.944	0.820	0.802	0.774	0.819	0.839	0.848	0.781	0.918	0.872	0.646	0.623	0.577	0.560	0.529	0.599	0.537	0.503	0.574	0.594	0.533	0.404	0.282	0.328	0.335	0.327
635.0	21.13	29.38	33.24	24.13	24.99	24.43	25.70	33.74	38.99	43.81	48.91	51.43	59.82	66.42	33.26	19.23	14.56	18.44	110.1	428.7	55.02	3.261	2.971	2.932	2.506	2.402	2.409	2.469	2.298	2.678	2.680	2.215	2.068	2.432	2.040	1.764	1.904	1.732	1.628	1.463	1.493	1.425	1.234	1.073	1.171	1.153	1.010	0.902	0.881	0.752	0.822	0.715	0.634	0.685	0.613	0.687	0.680	0.598	0.590	0.600	0.645	0.682	0.573	0.609	0.399	0.554	0.442	0.582	0.531	0.474	0.481	0.545	0.431	0.319	0.348	0.273	0.242
640.0	21.03	25.99	33.00	24.13	23.57	24.26	24.97	31.55	37.80	42.86	48.32	52.08	53.95	64.51	39.27	21.55	15.44	12.83	32.05	318.1	217.1	4.785	2.315	2.226	2.228	2.003	1.940	1.938	1.922	2.041	2.184	2.039	1.720	1.879	1.637	1.504	1.560	1.433	1.423	1.240	1.323	1.218	1.185	1.013	1.060	0.944	0.730	0.930	0.914	0.704	0.738	0.626	0.670	0.577	0.635	0.507	0.681	0.577	0.532	0.486	0.541	0.761	0.590	0.576	0.413	0.528	0.442	0.476	0.486	0.410	0.435	0.506	0.491	0.420	0.321	0.285	0.276
645.0	29.30	27.84	32.30	25.96	23.93	22.53	24.19	31.16	37.80	41.17	45.72	51.99	49.59	57.44	47.78	22.42	16.58	11.79	13.40	134.0	370.7	24.35	2.555	2.139	1.888	1.823	1.762	1.640	1.612	1.843	1.871	1.609	1.375	1.579	1.354	1.200	1.316	1.267	1.127	0.990	0.923	0.982	0.932	0.808	0.832	0.791	0.773	0.718	0.704	0.672	0.594	0.576	0.527	0.580	0.542	0.491	0.600	0.495	0.517	0.448	0.449	0.661	0.573	0.531	0.379	0.493	0.438	0.494	0.463	0.456	0.375	0.411	0.553	0.439	0.361	0.224	0.309
650.0	26.79	24.86	25.11	25.41	22.39	23.12	26.13	30.36	35.42	40.59	45.05	47.60	47.87	50.49	51.85	24.51	17.16	12.25	9.510	40.68	351.7	67.41	2.697	1.712	1.727	1.564	1.565	1.321	1.496	1.556	1.506	1.273	1.257	1.385	1.073	0.957	1.203	1.082	0.975	0.927	0.801	0.753	0.846	0.712	0.712	0.658	0.627	0.675	0.621	0.524	0.480	0.439	0.462	0.471	0.461	0.410	0.566	0.436	0.537	0.344	0.525	0.472	0.551	0.460	0.364	0.485	0.358	0.434	0.430	0.423	0.394	0.438	0.447	0.445	0.391	0.388	0.272
