Sample:	'1
File name:	Default_20250718_101711.FD3
Run date:	'10:10:49, 07/18/2025
Operator:	dsjg
Comment:	'

Instrument
Model:	F-2700 FL Spectrophotometer
Serial number:	2198-001
ROM Version:	4J14000 07

Instrument parameters
Measurement type:	3-D scan
Data mode:	Fluorescence
EX  Start WL:	220.0 nm
EX  End WL:	600.0 nm
EX Sampling interval:	5.0 nm
EM  Start WL:	230.0 nm
EM  End WL:	650.0 nm
EM Sampling interval:	5.0 nm
Scan speed:	12000 nm/min
EX Slit:	5.0 nm
EM Slit:	5.0 nm
PMT Voltage:	700 V
Response:	Auto 
Corrected spectra:	Off
Contour interval:	50.000

Peak integration
Integration method:	Rectangular
Sensitivity:	1
Threshold:	1.000

Peaks
No.	ApexEX/EM(nm)	Height(Data)
1	225.0/495.0	89.46
2	225.0/535.0	19.63
3	225.0/575.0	13.86
4	230.0/340.0	 3574
5	230.0/505.0	86.98
6	235.0/515.0	73.98
7	240.0/265.0	207.3
8	245.0/270.0	174.8
9	245.0/540.0	48.28
10	250.0/275.0	198.8
11	250.0/550.0	35.63
12	255.0/280.0	218.2
13	255.0/565.0	34.58
14	260.0/575.0	30.25
15	275.0/320.0	 4558
16	275.0/615.0	212.8
17	320.0/360.0	309.7
18	335.0/380.0	151.6
19	340.0/385.0	112.3
20	350.0/400.0	79.79
21	355.0/405.0	77.81
22	360.0/410.0	61.33
23	365.0/415.0	61.89
24	370.0/425.0	59.72
25	375.0/430.0	47.14
26	380.0/435.0	44.88
27	385.0/445.0	40.83
28	390.0/450.0	31.66
29	395.0/455.0	28.54
30	400.0/465.0	25.70
31	405.0/470.0	19.71
32	410.0/475.0	17.89
33	415.0/485.0	16.86
34	420.0/490.0	13.29
35	425.0/495.0	11.85
36	430.0/505.0	10.87
37	435.0/510.0	8.284
38	440.0/520.0	7.786
39	445.0/525.0	7.136
40	450.0/530.0	5.494
41	455.0/540.0	5.214
42	460.0/340.0	11.56
43	460.0/545.0	4.629
44	470.0/560.0	2.873
45	475.0/340.0	11.49
46	475.0/565.0	2.493
47	485.0/580.0	1.559
48	560.0/320.0	23.18

Data points
	220.0	225.0	230.0	235.0	240.0	245.0	250.0	255.0	260.0	265.0	270.0	275.0	280.0	285.0	290.0	295.0	300.0	305.0	310.0	315.0	320.0	325.0	330.0	335.0	340.0	345.0	350.0	355.0	360.0	365.0	370.0	375.0	380.0	385.0	390.0	395.0	400.0	405.0	410.0	415.0	420.0	425.0	430.0	435.0	440.0	445.0	450.0	455.0	460.0	465.0	470.0	475.0	480.0	485.0	490.0	495.0	500.0	505.0	510.0	515.0	520.0	525.0	530.0	535.0	540.0	545.0	550.0	555.0	560.0	565.0	570.0	575.0	580.0	585.0	590.0	595.0	600.0
230.0	75.17	 1551	 2898	598.6	15.74	4.821	4.198	3.469	2.652	2.441	2.346	2.495	2.302	1.795	1.800	1.333	1.168	1.094	0.736	0.483	0.561	0.492	0.505	0.435	0.398	0.425	0.382	0.351	0.359	0.335	0.370	0.347	0.314	0.287	0.276	0.349	0.373	0.353	0.329	0.320	0.394	0.514	0.599	0.468	0.334	0.296	0.636	3.827	8.116	7.909	3.902	0.933	0.292	0.222	0.188	0.178	0.213	0.219	0.221	0.187	0.204	0.197	0.190	0.195	0.233	0.186	0.211	0.195	0.182	0.170	0.193	0.212	0.201	0.206	0.214	0.229	0.208
235.0	102.9	425.6	 1794	 2313	466.5	20.15	5.576	3.307	2.636	2.900	2.802	2.372	2.378	2.021	1.695	1.421	1.267	1.186	0.823	0.551	0.568	0.430	0.374	0.482	0.462	0.380	0.297	0.376	0.368	0.375	0.298	0.252	0.303	0.335	0.264	0.322	0.383	0.385	0.336	0.280	0.319	0.344	0.431	0.635	0.614	0.463	0.386	1.131	2.542	4.563	7.159	8.604	4.821	1.275	0.284	0.265	0.239	0.209	0.224	0.152	0.224	0.209	0.167	0.195	0.198	0.231	0.181	0.179	0.156	0.170	0.185	0.222	0.184	0.228	0.203	0.193	0.242
240.0	158.8	147.2	538.1	 1995	 2046	330.4	9.819	3.602	3.520	3.235	2.651	2.301	2.507	1.995	1.590	1.393	1.152	1.044	0.704	0.560	0.532	0.648	0.401	0.444	0.462	0.406	0.340	0.390	0.387	0.298	0.316	0.299	0.295	0.269	0.314	0.253	0.279	0.355	0.281	0.300	0.331	0.399	0.295	0.456	0.564	0.823	0.574	0.545	0.715	1.305	2.946	7.418	10.37	8.147	3.310	0.640	0.241	0.205	0.222	0.184	0.197	0.235	0.210	0.213	0.167	0.177	0.209	0.155	0.197	0.178	0.193	0.198	0.202	0.219	0.189	0.288	0.227
245.0	128.2	172.4	155.1	723.1	 2207	 1702	207.0	5.251	3.720	3.650	3.487	2.701	2.389	1.963	1.580	1.542	1.266	1.116	0.677	0.583	0.622	0.539	0.413	0.454	0.375	0.367	0.440	0.374	0.343	0.369	0.373	0.278	0.285	0.326	0.269	0.247	0.259	0.298	0.338	0.365	0.319	0.367	0.361	0.320	0.387	0.658	0.682	0.744	0.527	0.487	0.889	2.206	5.446	9.645	10.16	5.929	1.712	0.348	0.210	0.203	0.147	0.198	0.200	0.198	0.176	0.209	0.238	0.184	0.200	0.188	0.167	0.171	0.194	0.187	0.279	0.205	0.275
250.0	52.34	133.3	164.3	208.1	737.0	 1707	 1680	231.3	24.37	3.940	3.386	3.318	2.462	2.311	2.172	1.782	1.411	1.163	0.706	0.581	0.551	0.554	0.549	0.433	0.404	0.402	0.382	0.457	0.362	0.326	0.314	0.354	0.296	0.289	0.290	0.255	0.268	0.275	0.309	0.360	0.307	0.303	0.343	0.318	0.314	0.375	0.426	0.658	0.782	0.763	0.584	0.757	1.462	2.895	4.933	6.828	7.771	6.887	3.659	1.391	0.318	0.206	0.222	0.209	0.219	0.198	0.211	0.200	0.184	0.229	0.181	0.236	0.214	0.214	0.200	0.220	0.230
255.0	26.60	46.69	135.6	209.2	205.6	445.2	 1310	 1933	295.6	22.81	4.027	3.448	2.823	2.904	2.107	1.997	1.530	1.171	0.816	0.610	0.587	0.509	0.551	0.474	0.396	0.380	0.345	0.443	0.429	0.384	0.252	0.288	0.354	0.319	0.356	0.249	0.317	0.301	0.283	0.273	0.408	0.348	0.313	0.304	0.276	0.277	0.258	0.371	0.397	0.593	0.961	1.056	0.919	0.905	1.306	1.853	2.591	5.406	8.944	9.517	5.088	1.451	0.336	0.241	0.229	0.163	0.280	0.271	0.147	0.209	0.208	0.200	0.223	0.195	0.222	0.180	0.222
260.0	22.41	18.45	60.53	183.8	168.3	121.8	410.5	 1596	 1683	229.8	10.26	4.044	3.484	2.743	2.276	2.122	1.483	1.230	0.854	0.705	0.615	0.559	0.451	0.472	0.566	0.511	0.286	0.449	0.417	0.362	0.303	0.369	0.333	0.235	0.351	0.287	0.353	0.267	0.278	0.256	0.322	0.307	0.368	0.314	0.310	0.351	0.218	0.274	0.273	0.313	0.541	0.972	1.252	0.993	0.672	0.600	0.804	1.542	3.584	7.533	10.29	8.265	3.557	0.724	0.205	0.218	0.250	0.182	0.181	0.220	0.221	0.247	0.222	0.225	0.208	0.203	0.239
265.0	17.66	12.24	22.31	90.97	207.3	112.0	107.6	556.0	 1681	 1372	168.1	5.897	4.115	2.970	2.510	2.080	1.601	1.244	0.636	0.623	0.632	0.527	0.386	0.417	0.570	0.475	0.329	0.366	0.425	0.314	0.352	0.292	0.330	0.273	0.323	0.234	0.307	0.262	0.241	0.279	0.294	0.294	0.360	0.345	0.321	0.320	0.240	0.231	0.257	0.219	0.262	0.490	0.875	1.364	1.160	0.623	0.451	0.577	1.039	2.261	5.181	8.904	9.923	6.408	1.985	0.333	0.254	0.224	0.195	0.214	0.247	0.198	0.243	0.228	0.206	0.192	0.257
270.0	17.54	11.16	11.53	28.73	105.4	174.8	126.7	146.8	541.1	 1228	 1331	506.7	36.32	3.822	2.892	2.388	1.969	1.338	0.843	0.656	0.706	0.518	0.542	0.461	0.530	0.440	0.383	0.370	0.350	0.408	0.318	0.344	0.370	0.331	0.285	0.272	0.281	0.289	0.298	0.302	0.236	0.264	0.305	0.280	0.340	0.322	0.282	0.268	0.242	0.214	0.241	0.288	0.432	0.684	0.912	1.159	1.185	0.746	0.587	0.706	1.436	2.621	4.546	6.410	7.728	6.699	4.226	1.556	0.329	0.220	0.223	0.218	0.245	0.223	0.247	0.234	0.243
275.0	20.58	10.60	11.45	11.79	31.08	88.04	198.8	144.8	139.0	317.7	875.8	 1540	673.1	28.70	3.523	2.473	2.205	1.654	1.177	0.684	0.735	0.677	0.628	0.500	0.421	0.459	0.463	0.387	0.409	0.346	0.400	0.397	0.324	0.398	0.364	0.364	0.398	0.376	0.332	0.321	0.298	0.226	0.236	0.265	0.338	0.315	0.292	0.306	0.334	0.281	0.215	0.258	0.263	0.392	0.366	0.520	1.031	1.562	1.471	0.805	0.584	0.801	1.256	1.741	2.482	4.378	7.724	9.185	5.569	1.433	0.334	0.255	0.250	0.189	0.273	0.211	0.211
280.0	19.80	16.34	12.66	11.69	13.44	32.57	133.6	218.2	107.9	87.11	270.9	 1059	 1484	162.5	11.90	3.139	2.609	1.739	1.239	0.745	0.727	0.712	0.521	0.505	0.474	0.455	0.466	0.426	0.413	0.318	0.285	0.405	0.262	0.453	0.376	0.401	0.400	0.403	0.411	0.276	0.249	0.266	0.294	0.255	0.254	0.325	0.339	0.288	0.300	0.280	0.225	0.234	0.247	0.264	0.255	0.268	0.512	0.832	1.361	1.569	1.021	0.559	0.513	0.603	0.801	1.338	2.961	6.421	9.254	8.054	3.526	0.773	0.256	0.204	0.201	0.206	0.288
285.0	25.55	21.81	15.77	12.96	11.41	15.97	59.83	186.8	203.3	68.88	86.17	365.8	 1170	 1210	122.0	6.069	3.082	2.481	1.253	0.902	0.746	0.731	0.707	0.613	0.464	0.554	0.428	0.387	0.439	0.330	0.313	0.393	0.464	0.476	0.390	0.434	0.385	0.424	0.416	0.343	0.316	0.276	0.302	0.270	0.266	0.274	0.346	0.383	0.378	0.274	0.254	0.227	0.246	0.319	0.260	0.246	0.342	0.441	0.719	1.213	1.820	1.371	0.650	0.415	0.476	0.603	0.991	2.044	4.176	7.477	9.503	6.078	1.850	0.280	0.228	0.254	0.290
290.0	40.56	40.71	36.13	27.74	29.72	34.49	53.12	110.7	221.9	235.1	130.1	151.2	401.1	869.5	 1027	440.0	31.50	6.163	1.873	1.096	0.938	0.808	0.671	0.653	0.412	0.547	0.479	0.465	0.472	0.368	0.392	0.337	0.413	0.500	0.501	0.569	0.525	0.525	0.462	0.408	0.345	0.350	0.294	0.300	0.311	0.266	0.385	0.390	0.387	0.332	0.274	0.306	0.321	0.344	0.384	0.336	0.413	0.460	0.537	0.748	1.139	1.581	1.885	1.651	1.094	0.718	0.732	0.965	1.384	2.467	4.078	5.837	7.161	6.883	4.036	1.388	0.356
295.0	97.21	106.2	105.2	95.00	106.7	129.7	172.6	216.5	282.2	441.0	512.6	237.5	258.8	344.0	701.6	 1329	649.2	56.05	8.093	2.063	1.312	0.912	0.902	0.822	0.575	0.606	0.509	0.525	0.526	0.367	0.355	0.367	0.482	0.590	0.769	0.773	0.899	0.745	0.629	0.597	0.486	0.552	0.420	0.426	0.494	0.568	0.491	0.546	0.582	0.570	0.518	0.568	0.642	0.758	0.818	0.813	0.975	1.086	1.094	1.293	1.473	1.755	2.102	2.813	3.375	2.870	2.187	1.701	1.780	1.913	2.105	2.391	2.952	5.196	8.981	10.62	5.980
300.0	295.6	315.8	296.6	257.3	285.2	362.1	426.2	407.1	868.4	 1148	 1422	 1325	 1090	907.0	902.9	 1332	 1897	606.2	52.90	6.550	1.819	1.381	1.209	0.953	0.732	0.739	0.810	0.716	0.556	0.460	0.477	0.536	0.694	0.885	1.151	1.277	1.544	1.391	1.404	1.339	1.163	1.204	0.991	0.965	0.967	1.144	1.160	1.283	1.182	1.152	1.031	1.192	1.253	1.416	1.605	1.766	2.447	2.647	3.279	3.775	4.247	4.943	5.284	6.231	6.985	8.176	8.063	6.718	6.552	5.593	5.129	4.393	4.888	5.306	6.793	10.16	14.12
305.0	628.0	688.1	618.1	511.9	558.7	740.5	 1049	 1386	 1897	 2330	 2928	 3257	 2800	 2159	 1966	 1756	 2436	 2263	405.5	18.69	3.931	1.956	1.541	1.094	0.999	0.918	0.857	0.765	0.614	0.623	0.616	0.703	0.960	1.545	1.883	2.303	2.482	2.627	2.607	2.638	2.365	2.355	1.836	1.864	1.726	2.024	2.254	2.398	2.310	2.339	1.798	2.034	2.294	2.530	2.930	3.570	4.532	5.459	6.770	7.953	8.279	10.48	11.65	13.03	14.12	15.12	16.46	17.14	15.36	13.08	11.76	10.27	11.42	10.43	9.826	9.974	13.73
310.0	997.6	 1143	 1005	791.8	821.1	 1054	 1458	 1898	 2426	 3071	 3619	 4030	 3803	 3005	 2622	 2108	 2277	 2134	 1243	330.6	22.24	2.796	2.051	1.435	1.209	1.134	1.027	0.900	0.697	0.733	0.675	0.795	1.119	1.752	2.506	3.028	3.448	3.555	3.490	3.475	3.163	3.143	2.857	2.658	2.746	3.281	3.446	3.697	3.571	3.322	2.737	3.430	3.511	3.560	4.122	5.042	6.076	7.504	9.089	10.05	11.02	13.22	14.91	16.66	17.52	18.92	19.94	20.74	20.66	18.89	16.30	14.50	14.62	13.91	12.37	10.96	12.47
315.0	 1412	 1613	 1444	 1113	 1062	 1291	 1749	 2190	 2697	 3425	 3984	 4450	 4275	 3675	 3132	 2398	 2349	 1714	753.7	 1112	467.8	19.71	2.991	1.864	1.439	1.172	1.110	0.988	0.854	0.954	0.695	0.874	1.328	1.968	2.639	3.206	3.654	3.905	4.086	3.994	3.938	3.438	3.497	3.466	3.588	4.340	4.796	5.464	5.082	4.748	3.740	4.480	4.494	4.674	5.042	6.185	7.189	9.264	10.79	11.61	12.56	14.50	16.71	18.15	19.37	20.72	21.83	22.37	22.04	20.85	19.73	18.27	17.58	17.02	13.99	12.48	13.25
320.0	 1781	 2140	 1782	 1281	 1167	 1379	 1850	 2285	 2751	 3475	 4092	 4558	 4393	 3846	 3437	 2545	 2387	 1625	452.4	651.5	 1154	329.4	9.033	2.581	1.516	1.356	1.170	1.097	0.861	0.806	0.761	0.948	1.265	1.831	2.677	3.277	3.744	4.293	4.262	4.251	3.931	3.840	3.851	4.090	4.373	5.514	5.885	6.854	6.722	5.432	4.470	5.080	5.041	5.136	5.502	6.598	8.132	9.360	11.51	12.15	13.12	14.63	16.89	18.79	19.88	21.15	22.03	23.07	23.18	22.18	20.75	20.33	19.36	18.10	14.81	13.19	13.49
325.0	 2114	 2600	 2132	 1435	 1206	 1362	 1777	 2187	 2570	 3231	 3820	 4277	 4128	 3622	 3312	 2529	 2231	 1481	376.4	260.5	772.8	 1124	62.48	5.450	2.026	1.546	1.467	1.018	0.946	0.892	0.759	0.956	1.119	1.778	2.374	3.249	3.640	3.910	3.967	4.140	3.846	3.949	4.061	4.517	4.922	6.255	6.962	8.149	7.744	6.325	5.413	5.445	5.347	5.190	5.403	6.213	8.061	9.148	10.86	11.82	12.16	13.42	16.19	17.08	17.80	19.62	20.55	21.71	21.99	20.58	19.06	18.03	18.56	18.18	14.94	12.17	12.77
330.0	 2320	 2961	 2695	 2002	 1531	 1357	 1611	 1921	 2249	 2789	 3301	 3743	 3652	 3226	 2909	 2353	 2068	 1316	395.0	192.3	293.6	745.3	875.6	259.6	19.99	2.404	1.429	1.127	1.070	0.930	0.864	0.980	1.198	1.650	2.208	2.893	3.360	3.513	3.715	3.653	3.673	4.050	4.098	4.518	5.261	6.664	7.576	9.367	9.163	8.187	7.156	7.642	6.959	6.609	6.107	6.353	7.007	8.240	9.547	10.63	10.73	11.82	13.71	15.01	15.85	17.51	18.45	19.12	19.29	18.30	17.40	16.29	15.92	15.78	13.86	12.08	12.16
335.0	 2531	 3382	 3442	 2870	 2202	 1500	 1482	 1704	 1932	 2403	 2876	 3255	 3251	 2932	 2596	 2089	 1961	 1306	476.8	264.7	235.4	304.1	487.4	 1078	388.7	17.42	2.059	1.309	1.026	0.985	0.904	0.927	1.062	1.496	2.114	2.409	2.762	3.283	3.342	3.306	3.610	3.676	4.107	4.549	5.627	7.330	8.465	11.04	11.34	10.44	9.631	10.88	10.38	10.05	7.732	6.855	6.856	7.678	8.582	9.205	9.420	10.06	11.47	13.08	13.85	15.36	15.96	16.51	16.91	16.30	15.55	14.32	14.34	13.65	12.14	11.16	11.64
340.0	 2482	 3434	 3574	 2992	 2306	 1459	 1290	 1469	 1663	 2040	 2462	 2792	 2815	 2570	 2279	 1805	 1676	 1252	506.6	279.5	224.6	205.1	237.0	640.2	 1055	273.3	6.491	1.629	1.251	1.175	0.886	0.877	1.154	1.377	1.856	2.061	2.311	2.819	2.718	3.205	3.148	3.419	3.645	4.515	5.510	7.040	8.215	11.27	11.56	10.49	10.19	11.49	11.08	10.07	8.092	6.135	6.195	6.852	7.119	8.068	8.025	8.940	9.796	11.03	11.61	13.02	13.65	14.19	14.51	13.95	13.37	12.91	13.12	12.15	10.77	9.386	10.15
345.0	 2240	 3165	 3384	 2861	 2159	 1305	 1114	 1232	 1378	 1678	 2027	 2327	 2358	 2172	 1915	 1524	 1361	 1062	547.4	275.1	211.4	173.7	159.0	252.0	707.3	923.3	51.73	2.948	1.334	1.145	0.801	0.829	1.072	1.323	1.639	1.935	1.996	2.253	2.519	2.626	2.720	3.076	3.405	3.938	4.768	6.183	7.114	9.934	10.52	9.701	9.713	11.05	10.36	9.336	7.209	5.470	5.348	5.796	5.903	6.686	6.943	7.400	8.457	8.920	9.757	10.47	11.07	11.69	12.05	11.82	11.20	10.82	10.76	10.30	9.167	8.214	8.195
350.0	 1938	 2785	 3122	 2777	 2144	 1204	922.9	 1006	 1096	 1317	 1588	 1829	 1859	 1744	 1554	 1252	 1090	819.8	524.2	358.0	226.0	173.2	151.8	144.3	214.5	553.7	724.4	220.8	14.21	1.190	0.933	0.909	1.013	1.289	1.414	1.608	1.790	1.936	2.134	2.094	2.319	2.594	3.058	3.367	4.094	5.265	6.409	8.371	9.670	9.292	9.332	10.87	10.52	9.718	6.989	4.899	4.708	4.758	5.137	5.582	5.629	5.935	6.376	7.254	7.720	8.411	8.823	9.550	9.413	9.565	9.058	9.007	8.886	8.280	7.396	6.783	6.606
355.0	 1628	 2415	 2734	 2559	 1990	 1075	746.0	785.8	850.9	 1008	 1211	 1394	 1437	 1365	 1220	994.3	860.1	642.8	402.7	366.5	290.7	173.1	147.3	121.1	79.46	138.5	315.1	814.6	338.5	13.12	1.182	1.020	1.009	1.130	1.284	1.282	1.574	1.600	1.766	1.794	1.896	2.242	2.609	2.873	3.404	4.613	5.586	7.123	8.501	8.300	8.168	9.862	10.10	9.392	6.577	4.405	3.889	3.889	4.342	4.335	4.214	4.745	4.781	5.571	5.799	6.576	7.066	7.365	7.146	7.255	7.114	6.843	6.965	6.587	6.150	5.594	5.264
360.0	 1358	 2036	 2311	 2176	 1711	902.6	617.9	626.2	673.2	801.7	947.7	 1095	 1127	 1074	978.3	797.8	687.0	514.9	319.1	276.8	309.7	191.6	128.5	99.65	45.99	42.22	84.79	425.2	891.8	243.6	5.280	1.096	1.053	1.086	1.144	1.169	1.286	1.413	1.395	1.585	1.651	1.741	2.039	2.427	2.687	3.910	4.762	6.276	6.647	7.190	7.325	8.261	8.347	7.931	5.482	3.722	3.127	3.263	3.572	3.430	3.357	3.660	3.974	4.421	4.644	5.038	5.200	5.921	6.120	5.765	5.457	5.494	5.472	5.383	5.024	4.663	4.228
365.0	 1129	 1652	 1926	 1858	 1473	775.4	510.6	513.9	539.9	633.1	761.1	865.8	905.1	858.5	787.3	646.0	563.3	417.1	266.7	208.7	249.4	233.1	128.1	84.38	36.79	21.20	26.11	117.4	585.3	812.7	48.37	2.543	1.219	1.026	1.088	1.031	1.000	1.257	1.233	1.320	1.448	1.680	1.751	2.038	2.397	3.187	3.868	5.271	5.553	5.874	6.148	7.084	7.022	7.169	4.680	3.068	2.695	2.628	2.635	2.950	2.686	3.053	3.261	3.476	3.780	3.980	4.583	4.718	5.054	4.458	4.571	4.382	4.516	4.519	3.966	3.820	3.361
370.0	874.9	 1313	 1557	 1555	 1265	655.9	409.0	403.1	416.7	482.9	581.6	656.9	687.6	662.8	608.0	507.3	437.3	334.5	222.9	170.1	163.7	199.2	182.5	93.31	32.24	16.88	12.89	31.62	154.9	483.0	527.0	198.7	12.20	1.179	0.991	0.970	1.045	1.089	1.033	1.113	1.199	1.299	1.382	1.658	1.929	2.525	3.158	4.140	4.445	4.694	5.101	6.011	6.132	6.016	4.156	2.774	2.265	2.185	2.239	2.299	2.186	2.379	2.570	2.827	2.989	3.316	3.461	3.529	3.586	3.707	3.554	3.585	3.566	3.523	3.260	3.139	2.719
375.0	659.8	983.7	 1234	 1219	 1027	529.7	321.9	311.5	322.2	354.6	425.3	482.7	500.3	490.5	450.5	383.5	329.3	257.0	179.0	139.8	120.1	120.7	162.8	145.0	41.57	14.94	9.566	12.02	38.66	114.2	249.1	727.2	294.1	11.95	1.057	1.028	1.095	1.003	0.867	0.918	1.106	0.984	1.089	1.274	1.521	1.986	2.386	3.101	3.477	3.753	3.991	4.934	5.133	5.033	3.349	2.167	1.710	1.689	1.755	1.872	1.855	1.827	1.998	2.178	2.212	2.418	2.480	2.722	2.728	2.646	2.799	2.689	2.670	2.726	2.517	2.462	2.163
380.0	527.3	792.3	991.6	 1013	848.1	425.5	261.3	243.5	247.8	275.8	327.6	373.2	389.1	386.7	349.8	304.1	263.1	206.5	147.8	118.0	99.55	87.41	107.0	151.6	65.97	17.03	9.382	7.671	12.60	29.21	64.61	376.2	744.1	197.0	3.935	1.090	0.981	0.956	0.917	0.875	0.900	0.861	0.909	1.098	1.338	1.617	1.837	2.340	2.819	2.965	3.413	4.038	4.143	4.074	2.728	1.879	1.618	1.418	1.408	1.512	1.565	1.425	1.533	1.721	1.708	1.910	1.937	2.067	2.204	2.068	2.238	2.138	2.047	2.064	1.816	2.035	1.745
385.0	433.2	639.7	803.1	835.2	705.8	361.5	216.7	199.5	202.6	220.8	258.3	295.8	315.2	304.3	282.0	249.4	215.5	173.6	126.0	100.7	83.37	73.21	72.87	105.7	112.3	35.84	9.606	6.829	6.748	10.05	17.88	101.8	482.1	632.6	38.91	1.620	1.021	0.780	0.880	0.845	0.861	0.835	0.848	0.988	1.110	1.313	1.586	1.911	2.241	2.640	2.805	3.348	3.327	3.231	2.436	1.629	1.314	1.190	1.172	1.209	1.180	1.239	1.155	1.354	1.381	1.621	1.636	1.764	1.830	1.806	1.936	1.864	1.792	1.732	1.497	1.692	1.460
390.0	332.2	485.0	617.5	665.3	562.2	291.4	171.7	162.6	159.8	176.1	200.7	227.5	240.0	236.7	221.3	191.8	169.6	139.0	104.8	84.83	70.86	61.36	56.75	57.11	81.21	76.07	30.42	7.977	5.763	6.071	7.439	25.87	125.7	371.0	404.9	154.5	9.897	0.877	0.813	0.731	0.693	0.695	0.821	0.847	0.895	1.111	1.234	1.532	1.876	1.969	2.268	2.677	2.727	2.587	1.916	1.326	1.054	0.985	1.040	1.042	0.989	1.029	0.963	1.094	1.085	1.330	1.317	1.369	1.402	1.473	1.461	1.400	1.500	1.437	1.344	1.326	1.309
395.0	244.4	370.8	468.1	515.2	435.3	233.3	134.6	128.0	127.8	137.1	152.6	171.8	181.4	181.8	166.3	147.0	133.7	112.7	87.41	71.61	60.18	50.42	45.81	38.43	36.93	64.14	79.02	23.30	5.677	5.027	4.930	8.733	30.55	86.94	189.2	529.5	229.0	9.403	0.885	0.786	0.690	0.647	0.711	0.688	0.753	0.845	1.079	1.240	1.427	1.554	1.713	2.120	2.260	2.013	1.668	1.059	0.948	0.802	0.909	0.857	0.832	0.765	0.797	0.921	0.983	0.963	1.076	1.085	1.065	1.183	1.043	1.180	1.111	1.214	1.240	1.225	1.136
400.0	209.0	300.2	377.4	413.7	373.5	194.4	115.7	104.6	106.6	111.9	129.0	140.5	150.6	148.7	136.3	122.2	108.9	94.56	75.35	61.96	51.74	45.40	39.75	31.37	24.04	33.54	79.79	54.62	11.10	5.235	4.542	4.955	9.539	22.05	48.37	271.3	541.4	40.46	3.358	0.778	0.751	0.672	0.629	0.560	0.653	0.810	0.940	1.073	1.178	1.395	1.407	1.813	1.884	1.741	1.463	0.924	0.730	0.807	0.821	0.735	0.723	0.643	0.767	0.717	0.769	0.733	0.917	0.913	0.886	0.933	0.876	1.041	1.004	0.975	1.018	1.108	1.096
405.0	185.5	246.8	319.1	348.1	307.6	168.5	98.50	92.10	91.79	97.07	111.2	119.9	123.7	122.3	116.6	102.8	95.49	82.69	66.02	55.61	47.29	39.81	34.74	28.17	19.44	19.08	45.61	77.81	31.53	6.663	4.585	4.453	5.033	7.441	13.28	71.97	336.8	447.7	34.02	1.535	0.734	0.693	0.648	0.628	0.545	0.757	0.715	0.932	0.965	1.089	1.269	1.472	1.540	1.686	1.149	0.990	0.682	0.625	0.703	0.659	0.600	0.658	0.675	0.620	0.792	0.754	0.766	0.727	0.763	0.815	0.959	0.857	0.873	0.789	0.852	0.919	0.958
410.0	148.6	196.8	250.7	275.2	248.5	140.6	85.62	82.34	77.56	85.03	90.80	99.60	103.7	101.1	96.36	84.57	81.27	71.23	58.70	50.06	41.76	35.32	30.85	25.51	17.10	14.44	20.36	47.56	61.33	27.61	6.551	4.254	4.103	4.351	5.263	18.27	86.95	268.6	325.4	134.7	7.991	0.757	0.597	0.606	0.535	0.712	0.684	0.780	0.831	0.931	0.979	1.128	1.322	1.279	1.007	0.759	0.694	0.611	0.614	0.631	0.597	0.614	0.643	0.537	0.639	0.643	0.666	0.633	0.743	0.724	0.824	0.766	0.817	0.713	0.752	0.803	0.770
415.0	113.5	168.2	201.5	219.3	200.0	120.5	75.69	72.17	66.43	74.03	78.23	83.55	86.58	85.19	80.37	73.48	68.19	60.59	52.64	44.05	36.12	30.19	27.27	22.76	15.84	12.54	12.51	19.09	43.99	61.89	21.95	5.023	3.898	3.573	3.698	5.954	21.15	63.08	147.2	397.3	182.6	7.383	0.594	0.543	0.535	0.621	0.538	0.703	0.722	0.851	0.851	1.057	1.097	1.125	0.828	0.665	0.607	0.592	0.549	0.505	0.618	0.596	0.502	0.486	0.564	0.612	0.586	0.557	0.660	0.610	0.711	0.651	0.687	0.634	0.697	0.676	0.723
420.0	101.7	148.8	174.7	191.1	168.6	95.59	65.80	67.19	60.34	66.11	70.51	76.22	79.39	77.25	71.37	64.60	62.35	55.77	48.66	41.05	33.61	28.06	24.78	20.10	14.87	12.11	11.13	11.29	20.60	57.03	47.81	10.86	3.815	3.390	3.194	3.549	6.489	15.84	37.30	201.6	404.3	37.47	2.697	0.587	0.602	0.608	0.531	0.747	0.607	0.788	0.738	0.891	1.024	0.964	0.733	0.568	0.548	0.544	0.546	0.510	0.516	0.508	0.527	0.509	0.511	0.511	0.598	0.508	0.552	0.698	0.639	0.500	0.650	0.574	0.592	0.659	0.595
425.0	94.71	136.8	159.3	168.0	148.8	92.86	60.49	57.37	58.64	58.73	65.27	68.74	68.93	68.59	63.45	56.80	55.49	49.95	43.76	38.63	31.89	25.78	23.17	19.34	14.27	11.60	9.985	9.288	11.04	31.32	59.72	27.75	5.423	3.318	2.922	3.152	3.328	4.982	10.09	53.28	254.5	290.2	31.31	1.198	0.630	0.536	0.526	0.536	0.537	0.664	0.680	0.838	0.871	0.874	0.704	0.522	0.543	0.516	0.566	0.461	0.503	0.521	0.432	0.554	0.544	0.455	0.514	0.523	0.558	0.529	0.574	0.623	0.639	0.556	0.583	0.583	0.526
430.0	103.9	112.7	137.1	140.5	127.7	79.91	55.37	51.55	53.85	57.50	59.62	63.37	63.99	61.84	56.96	51.57	49.71	44.38	39.87	34.75	28.99	23.80	20.91	17.83	13.45	11.21	9.710	8.446	8.309	13.76	34.63	47.14	22.18	5.040	2.768	2.634	2.756	2.615	3.645	13.25	66.06	196.0	263.9	111.6	6.932	0.629	0.528	0.537	0.582	0.584	0.614	0.767	0.744	0.773	0.627	0.490	0.533	0.578	0.462	0.428	0.454	0.479	0.466	0.466	0.575	0.452	0.516	0.446	0.533	0.560	0.535	0.521	0.562	0.497	0.558	0.564	0.496
435.0	364.0	100.3	119.1	122.2	108.3	70.10	51.71	48.57	48.31	52.29	53.64	56.71	57.53	55.60	51.64	45.98	45.35	39.88	36.37	31.27	24.93	20.98	19.10	16.32	12.83	10.78	9.410	8.219	7.963	8.313	13.57	30.31	44.88	17.10	3.541	2.529	2.486	2.283	2.338	4.100	15.91	45.64	115.0	316.4	155.5	5.546	0.519	0.554	0.576	0.571	0.547	0.677	0.683	0.654	0.537	0.449	0.451	0.497	0.432	0.517	0.471	0.400	0.475	0.489	0.449	0.407	0.500	0.476	0.501	0.549	0.459	0.434	0.425	0.448	0.458	0.533	0.493
440.0	879.8	101.6	106.6	112.5	97.45	66.87	46.78	48.62	48.16	50.23	51.63	51.75	53.03	52.79	46.87	42.31	41.21	37.41	32.60	29.56	23.97	19.64	17.71	15.36	12.09	10.25	9.087	7.871	7.450	6.991	7.732	14.36	39.49	33.61	8.175	2.506	2.289	2.019	2.162	2.101	4.703	11.36	29.15	171.3	340.6	33.64	1.567	0.581	0.626	0.473	0.526	0.619	0.621	0.558	0.521	0.406	0.478	0.517	0.399	0.395	0.392	0.414	0.421	0.427	0.414	0.469	0.451	0.472	0.480	0.509	0.465	0.349	0.437	0.428	0.446	0.445	0.522
445.0	 1385	216.1	98.34	101.0	92.71	62.31	44.67	43.74	44.46	48.21	48.39	50.59	50.45	49.62	43.41	39.89	36.93	33.81	30.94	27.71	22.35	18.35	16.57	15.07	11.79	10.04	8.870	7.449	7.538	6.252	6.235	8.125	22.01	40.83	19.57	3.679	2.086	1.797	2.112	1.944	2.043	3.505	7.808	46.92	234.6	258.5	23.74	0.982	0.603	0.516	0.495	0.554	0.641	0.553	0.549	0.435	0.438	0.450	0.366	0.354	0.426	0.429	0.396	0.510	0.448	0.385	0.480	0.445	0.456	0.453	0.450	0.330	0.486	0.500	0.514	0.453	0.483
450.0	 1183	824.5	117.0	92.94	79.87	56.19	43.36	39.78	41.69	42.03	44.35	44.66	45.71	43.03	38.53	35.95	33.58	31.37	28.13	24.65	20.34	16.23	14.64	13.41	10.98	9.315	8.436	7.254	7.010	5.881	5.688	5.664	9.209	23.39	31.66	14.78	3.232	1.731	1.705	1.627	1.592	1.723	2.751	11.61	61.60	180.4	234.6	95.75	5.332	0.557	0.500	0.604	0.580	0.571	0.561	0.427	0.451	0.391	0.380	0.402	0.390	0.469	0.431	0.459	0.425	0.411	0.396	0.422	0.427	0.434	0.400	0.438	0.437	0.408	0.437	0.405	0.413
455.0	480.5	 1413	404.7	79.10	72.70	47.87	37.93	37.73	36.94	38.62	40.68	40.73	39.91	38.28	33.60	31.75	29.39	27.50	24.92	21.94	18.80	15.17	13.01	11.93	9.745	8.837	7.875	6.906	6.424	5.827	5.182	4.518	5.180	8.731	20.03	28.54	11.53	2.451	1.466	1.421	1.283	1.498	1.482	3.350	14.61	42.12	107.1	276.4	127.0	4.102	0.511	0.605	0.568	0.628	0.490	0.420	0.411	0.343	0.381	0.381	0.468	0.435	0.461	0.374	0.446	0.365	0.419	0.458	0.385	0.414	0.384	0.409	0.463	0.378	0.340	0.364	0.410
460.0	164.5	 1209	914.3	89.67	66.76	43.83	36.68	31.77	30.77	35.87	38.26	35.97	37.48	35.67	31.53	29.36	26.67	24.74	22.80	19.25	16.75	13.89	12.18	10.44	8.600	8.312	7.090	6.373	5.984	5.586	4.767	4.575	4.177	4.765	9.458	25.15	22.14	5.306	1.561	1.267	1.265	1.329	1.305	1.398	4.087	10.31	26.80	151.0	278.8	25.37	1.545	0.597	0.571	0.538	0.458	0.473	0.361	0.327	0.382	0.405	0.425	0.382	0.394	0.348	0.420	0.382	0.399	0.434	0.412	0.432	0.369	0.408	0.392	0.453	0.357	0.376	0.358
465.0	82.43	695.0	 1357	214.8	61.65	40.94	34.52	31.20	29.80	33.40	34.44	33.08	33.91	32.31	28.69	26.38	24.42	23.16	20.47	17.77	15.39	12.59	11.33	10.02	8.311	7.446	6.734	6.217	5.765	5.546	4.811	4.202	3.930	3.470	4.577	14.35	25.70	12.66	2.338	1.097	1.076	1.214	1.283	1.166	1.514	3.035	6.961	41.20	197.6	197.0	20.27	0.888	0.582	0.541	0.451	0.441	0.352	0.328	0.359	0.328	0.365	0.355	0.326	0.402	0.414	0.337	0.314	0.321	0.398	0.357	0.291	0.385	0.366	0.386	0.418	0.363	0.340
470.0	64.21	226.9	 1132	745.2	80.12	37.84	30.17	27.70	28.88	29.53	30.04	30.51	29.75	28.94	24.98	22.51	21.44	20.48	17.76	15.57	13.56	11.27	9.685	9.182	7.446	7.017	6.121	5.793	5.588	5.043	4.335	3.952	3.436	3.012	3.165	5.869	14.98	19.71	9.709	2.050	1.047	1.046	1.006	1.187	1.110	1.353	2.217	10.03	52.54	143.8	180.1	82.79	4.147	0.531	0.462	0.410	0.334	0.364	0.374	0.351	0.331	0.316	0.305	0.367	0.383	0.387	0.291	0.317	0.336	0.341	0.347	0.389	0.357	0.350	0.348	0.335	0.376
475.0	74.97	86.78	434.7	 1175	318.6	35.74	29.32	25.13	26.38	27.48	26.61	25.88	25.28	24.82	21.71	19.85	19.21	17.98	15.25	13.29	11.57	9.830	8.615	7.929	6.847	6.436	5.197	5.497	4.891	4.507	3.952	3.537	2.912	2.849	2.526	3.123	5.415	13.08	17.89	7.168	1.423	1.009	0.744	0.871	1.059	1.002	1.013	2.873	12.33	33.42	79.53	215.5	29.69	3.341	0.530	0.375	0.366	0.349	0.368	0.343	0.296	0.309	0.305	0.295	0.376	0.389	0.380	0.319	0.285	0.363	0.322	0.332	0.374	0.337	0.308	0.311	0.290
480.0	91.76	60.96	145.7	967.0	642.6	46.52	24.98	23.97	26.18	25.23	25.31	23.21	22.32	22.16	19.81	17.21	16.56	15.26	13.64	12.12	10.47	8.798	8.008	7.204	6.106	6.004	5.248	4.867	4.590	4.325	4.025	3.491	2.954	2.578	2.219	2.208	2.687	6.166	16.61	13.88	3.287	0.891	0.773	0.717	0.840	0.968	0.781	1.260	3.285	8.113	19.93	111.7	192.4	27.88	1.431	0.370	0.422	0.332	0.322	0.384	0.289	0.337	0.308	0.353	0.316	0.331	0.310	0.301	0.268	0.313	0.290	0.301	0.286	0.309	0.279	0.305	0.253
485.0	97.06	62.50	67.18	505.3	 1004	153.7	24.46	22.63	21.01	23.48	22.30	21.63	21.12	18.94	17.78	16.09	15.81	14.55	12.36	11.05	9.410	8.335	7.527	6.674	5.708	5.608	4.740	4.504	4.160	4.026	3.682	3.315	2.833	2.420	2.106	1.766	1.901	2.921	9.565	16.86	8.283	1.540	0.692	0.711	0.724	0.953	0.927	0.745	1.234	2.331	5.154	29.81	138.0	182.8	21.86	0.647	0.436	0.368	0.310	0.329	0.311	0.322	0.312	0.348	0.295	0.314	0.250	0.237	0.300	0.347	0.280	0.264	0.325	0.323	0.226	0.305	0.316
490.0	75.57	79.46	50.59	164.4	782.4	560.2	46.48	20.41	20.30	19.89	20.21	19.54	18.80	17.04	16.01	14.52	14.26	12.28	11.14	9.745	8.247	7.452	6.674	6.160	5.392	4.806	4.337	4.353	4.098	3.840	3.314	3.063	2.693	2.262	1.917	1.691	1.559	1.777	3.778	10.17	13.29	6.333	1.446	0.754	0.627	0.762	0.867	0.828	0.813	0.964	1.687	7.297	36.32	113.3	156.7	68.66	3.800	0.410	0.330	0.346	0.307	0.293	0.287	0.291	0.345	0.303	0.294	0.306	0.306	0.296	0.273	0.268	0.303	0.284	0.237	0.285	0.347
495.0	44.56	89.46	59.62	63.68	297.8	825.6	230.0	19.78	19.12	18.67	18.64	18.04	17.03	15.45	13.80	13.08	12.19	10.38	9.378	8.640	7.147	6.004	5.877	5.457	4.791	4.048	4.034	3.950	3.329	3.586	3.068	2.751	2.423	1.946	1.810	1.478	1.495	1.336	1.816	3.809	9.785	11.85	4.711	1.077	0.584	0.637	0.611	0.927	0.939	0.667	0.693	2.139	8.614	26.51	74.12	185.9	32.45	2.975	0.322	0.392	0.299	0.328	0.299	0.318	0.322	0.329	0.352	0.288	0.288	0.328	0.287	0.233	0.326	0.267	0.287	0.471	0.347
500.0	29.18	72.01	71.77	41.92	97.45	655.3	461.5	32.54	16.62	17.90	16.86	16.44	15.69	13.39	13.20	11.11	10.68	9.080	8.349	7.354	6.348	5.507	5.045	4.823	4.320	4.183	3.788	3.671	3.352	3.244	2.710	2.643	2.324	1.855	1.693	1.507	1.324	1.267	1.336	1.796	4.658	11.33	8.582	2.185	0.680	0.494	0.500	0.701	0.841	0.640	0.522	0.878	2.425	6.438	18.62	97.80	188.1	29.32	1.038	0.461	0.340	0.274	0.322	0.317	0.304	0.292	0.324	0.271	0.293	0.258	0.297	0.259	0.292	0.270	0.296	0.349	0.273
505.0	25.82	51.03	86.98	39.76	41.91	330.5	712.8	117.7	15.04	15.74	14.36	13.38	13.44	12.02	11.30	10.01	9.215	8.644	7.787	7.109	5.570	5.095	4.467	4.283	4.305	3.904	3.316	2.947	3.259	2.738	2.350	2.263	2.150	1.708	1.553	1.487	1.379	1.192	1.015	1.205	2.090	7.094	10.87	4.910	1.155	0.568	0.434	0.530	0.714	0.805	0.486	0.526	0.960	1.915	4.700	26.07	132.4	167.2	22.47	0.670	0.361	0.337	0.327	0.264	0.299	0.237	0.266	0.289	0.321	0.255	0.266	0.293	0.280	0.257	0.211	0.279	0.346
510.0	22.51	31.16	73.09	54.55	28.52	100.2	525.1	416.3	33.92	13.56	12.99	11.35	11.88	10.60	9.721	9.211	8.502	7.508	6.591	5.713	5.150	4.623	3.721	4.131	3.430	3.201	2.878	2.786	2.753	2.637	2.358	2.340	1.957	1.608	1.564	1.312	1.212	1.034	0.914	0.920	1.196	2.846	7.031	8.284	3.976	0.906	0.433	0.462	0.515	0.652	0.661	0.567	0.602	0.859	1.488	6.321	34.80	100.5	133.4	60.05	3.652	0.371	0.358	0.302	0.276	0.234	0.256	0.277	0.285	0.252	0.265	0.253	0.263	0.239	0.253	0.290	0.378
515.0	19.91	21.57	45.15	73.98	27.30	34.02	179.2	575.7	177.6	12.99	12.00	10.68	10.20	9.534	9.053	7.368	7.321	6.079	5.948	4.991	4.652	3.946	3.491	3.567	2.890	2.971	2.542	2.479	2.344	2.222	2.111	2.060	1.612	1.589	1.304	1.046	1.153	1.038	0.829	0.809	0.764	1.203	2.690	6.756	7.746	2.922	0.626	0.404	0.360	0.413	0.552	0.707	0.563	0.544	0.621	1.784	8.171	23.28	56.46	148.1	32.77	2.711	0.374	0.278	0.326	0.204	0.247	0.228	0.276	0.216	0.221	0.266	0.319	0.222	0.225	0.247	0.286
520.0	19.51	22.75	28.64	67.92	38.13	18.77	54.85	421.9	340.0	23.17	10.64	9.882	9.014	8.066	7.775	6.867	6.325	5.623	5.353	4.407	3.875	3.401	3.152	2.920	2.702	2.653	2.426	2.380	2.144	1.986	1.758	1.747	1.502	1.387	1.274	1.093	0.857	0.878	0.834	0.618	0.727	0.777	1.133	3.626	7.786	5.581	1.373	0.450	0.409	0.343	0.449	0.729	0.750	0.482	0.413	0.758	2.179	5.643	13.99	75.84	139.4	27.87	0.994	0.327	0.281	0.267	0.304	0.224	0.273	0.236	0.219	0.227	0.339	0.249	0.234	0.227	0.288
525.0	21.21	19.51	21.43	52.88	52.66	16.32	22.07	201.9	494.9	97.75	10.45	8.493	9.036	6.614	6.899	6.116	5.595	4.762	4.672	3.694	3.730	2.927	2.655	2.819	2.344	2.295	2.297	2.144	2.028	1.948	1.683	1.512	1.441	1.200	1.121	0.987	0.852	0.729	0.786	0.655	0.702	0.655	0.656	1.598	4.950	7.136	3.314	0.685	0.361	0.329	0.430	0.533	0.686	0.533	0.365	0.461	0.775	1.633	3.577	19.86	90.62	127.2	20.53	0.474	0.297	0.281	0.234	0.326	0.240	0.241	0.235	0.224	0.293	0.237	0.254	0.273	0.266
530.0	17.70	17.87	18.56	30.75	51.85	27.36	12.77	60.11	338.9	305.0	31.50	7.640	7.890	6.329	6.023	5.329	4.870	4.400	4.063	3.360	3.222	2.536	2.484	2.362	2.234	1.991	1.900	1.862	1.819	1.709	1.601	1.387	1.178	1.112	0.943	0.870	0.784	0.614	0.663	0.646	0.622	0.491	0.543	0.797	2.015	5.169	5.494	2.562	0.631	0.290	0.324	0.377	0.480	0.594	0.520	0.420	0.452	0.657	1.134	4.793	23.34	73.48	100.0	44.72	3.137	0.345	0.242	0.270	0.240	0.225	0.218	0.249	0.228	0.214	0.247	0.237	0.287
535.0	15.47	19.63	13.66	19.14	38.30	44.12	13.06	20.55	112.8	369.1	157.4	8.370	7.458	5.592	5.479	4.693	4.425	3.985	3.352	2.834	2.588	2.137	1.904	2.121	1.880	1.874	1.371	1.672	1.572	1.365	1.394	1.312	1.028	0.927	0.949	0.720	0.681	0.715	0.562	0.544	0.527	0.442	0.465	0.553	0.777	2.088	4.665	4.701	1.801	0.433	0.335	0.294	0.343	0.427	0.617	0.514	0.450	0.382	0.570	1.349	5.504	16.94	39.74	106.6	32.32	2.447	0.302	0.258	0.195	0.270	0.195	0.224	0.279	0.197	0.230	0.235	0.226
540.0	16.57	15.58	12.93	15.28	23.35	48.28	20.24	11.35	34.79	254.0	277.4	22.07	6.398	5.476	4.980	4.045	3.638	3.486	3.087	2.633	2.369	2.027	1.886	1.846	1.668	1.557	1.498	1.497	1.490	1.234	1.180	1.272	0.925	0.904	0.832	0.761	0.681	0.649	0.535	0.483	0.446	0.387	0.443	0.494	0.500	0.764	2.774	5.214	3.629	0.868	0.332	0.271	0.317	0.364	0.421	0.642	0.473	0.351	0.389	0.673	1.555	4.142	9.765	52.07	105.7	26.80	1.089	0.237	0.258	0.227	0.210	0.218	0.219	0.207	0.206	0.275	0.152
545.0	14.66	15.61	13.80	13.71	14.95	41.85	28.90	8.551	14.06	116.2	345.8	90.49	6.134	4.781	4.974	3.840	3.457	3.378	2.756	2.464	2.434	1.947	1.672	1.740	1.632	1.354	1.426	1.290	1.381	1.293	1.035	1.118	0.935	0.890	0.852	0.683	0.647	0.618	0.561	0.508	0.452	0.407	0.444	0.401	0.410	0.516	1.234	3.960	4.629	1.913	0.455	0.284	0.268	0.307	0.339	0.540	0.570	0.321	0.329	0.367	0.573	1.214	2.521	13.59	65.03	97.60	19.92	0.496	0.256	0.175	0.188	0.199	0.193	0.227	0.220	0.194	0.205
550.0	16.38	14.15	12.12	10.95	11.25	24.54	35.63	13.16	8.438	35.48	207.5	238.2	26.22	4.494	4.166	3.538	3.189	3.063	2.404	2.171	2.049	1.821	1.468	1.634	1.527	1.243	1.256	1.171	1.083	1.028	0.991	0.991	0.940	0.831	0.771	0.698	0.649	0.501	0.432	0.475	0.444	0.359	0.426	0.414	0.335	0.398	0.619	1.666	3.555	3.278	1.421	0.463	0.241	0.307	0.281	0.306	0.449	0.532	0.366	0.324	0.360	0.537	0.866	3.346	16.61	52.37	76.86	22.62	2.808	0.242	0.230	0.208	0.234	0.267	0.242	0.221	0.260
555.0	14.57	11.23	11.57	10.75	7.321	12.42	28.64	24.32	6.700	12.42	65.86	235.8	135.6	5.433	3.885	2.985	3.129	2.661	1.937	1.982	1.607	1.486	1.350	1.430	1.232	1.162	1.057	1.094	1.028	0.977	0.904	0.909	0.729	0.775	0.706	0.607	0.581	0.479	0.485	0.411	0.451	0.384	0.394	0.374	0.344	0.324	0.404	0.664	1.546	3.220	2.685	1.044	0.412	0.247	0.246	0.307	0.351	0.438	0.530	0.358	0.318	0.352	0.478	0.985	3.990	12.08	28.54	75.57	32.16	2.108	0.299	0.228	0.213	0.229	0.245	0.211	0.206
560.0	13.75	9.831	12.29	8.882	6.306	7.068	21.84	34.19	9.520	8.240	21.80	141.7	228.9	20.23	4.361	2.797	2.669	2.258	1.883	1.768	1.307	1.463	1.133	1.234	1.048	1.120	1.080	0.831	0.877	1.011	0.839	0.788	0.683	0.697	0.549	0.627	0.449	0.463	0.512	0.410	0.415	0.404	0.337	0.267	0.313	0.311	0.274	0.414	0.690	2.159	2.873	1.921	0.607	0.319	0.287	0.340	0.340	0.376	0.521	0.490	0.311	0.264	0.331	0.424	1.096	2.983	7.028	35.63	79.11	25.01	0.792	0.249	0.256	0.220	0.266	0.202	0.224
565.0	13.09	10.10	10.57	7.973	6.397	5.338	13.83	34.58	17.18	6.473	10.40	60.01	226.8	80.07	3.845	2.633	2.395	2.197	1.653	1.491	1.149	1.114	0.992	1.055	0.961	1.071	0.855	0.763	0.819	0.811	0.821	0.693	0.609	0.558	0.588	0.492	0.455	0.455	0.430	0.432	0.397	0.330	0.333	0.316	0.281	0.280	0.236	0.309	0.390	1.050	2.304	2.493	1.013	0.342	0.228	0.232	0.321	0.264	0.384	0.479	0.417	0.277	0.297	0.326	0.466	0.901	1.804	9.350	44.16	69.05	15.62	0.459	0.282	0.227	0.247	0.194	0.212
570.0	11.40	10.50	9.376	7.761	6.185	5.069	6.919	24.92	29.13	8.498	6.731	19.34	122.6	168.2	25.61	2.311	2.180	1.925	1.329	1.222	1.081	1.127	1.003	0.862	0.916	0.772	0.836	0.658	0.682	0.760	0.621	0.576	0.481	0.519	0.488	0.488	0.402	0.383	0.403	0.288	0.328	0.293	0.303	0.294	0.299	0.256	0.272	0.284	0.266	0.423	1.085	1.970	1.784	0.692	0.321	0.236	0.253	0.294	0.292	0.356	0.466	0.352	0.288	0.282	0.344	0.421	0.630	2.375	11.07	34.21	49.55	20.11	1.982	0.253	0.240	0.251	0.240
575.0	12.00	13.86	10.05	7.514	5.889	4.981	5.476	12.49	30.25	17.92	6.703	9.561	38.22	139.1	110.5	3.662	2.064	1.804	1.251	1.116	0.950	0.934	0.866	0.878	0.866	0.776	0.631	0.517	0.552	0.621	0.470	0.471	0.493	0.585	0.480	0.429	0.449	0.358	0.342	0.334	0.306	0.287	0.274	0.270	0.258	0.276	0.304	0.284	0.235	0.260	0.448	0.901	1.709	1.372	0.568	0.315	0.216	0.285	0.288	0.246	0.351	0.418	0.394	0.219	0.271	0.315	0.352	0.737	2.723	7.996	17.36	43.98	26.60	1.517	0.254	0.235	0.236
580.0	13.01	12.76	9.123	6.988	5.374	4.933	5.203	9.076	24.57	26.58	8.048	8.773	13.82	80.71	162.7	20.58	1.986	1.615	1.109	1.061	0.925	0.776	0.743	0.667	0.608	0.690	0.627	0.495	0.557	0.599	0.503	0.466	0.543	0.638	0.469	0.389	0.414	0.324	0.361	0.339	0.258	0.262	0.330	0.291	0.239	0.253	0.290	0.265	0.281	0.186	0.237	0.475	1.190	1.559	0.845	0.432	0.262	0.231	0.272	0.215	0.295	0.415	0.493	0.335	0.255	0.262	0.315	0.359	0.833	2.037	4.283	19.73	46.25	17.47	0.714	0.228	0.223
585.0	12.24	11.60	10.23	6.632	5.871	6.563	6.916	8.064	19.80	35.64	12.86	9.362	9.089	35.25	143.8	70.96	2.454	1.834	1.035	0.995	0.803	0.630	0.752	0.800	0.576	0.562	0.546	0.505	0.612	0.590	0.455	0.467	0.435	0.544	0.517	0.392	0.325	0.320	0.282	0.326	0.290	0.260	0.267	0.262	0.273	0.262	0.237	0.256	0.237	0.193	0.209	0.306	0.689	1.362	1.220	0.655	0.383	0.243	0.247	0.186	0.248	0.310	0.457	0.454	0.339	0.300	0.299	0.300	0.390	0.660	1.223	5.160	24.89	38.91	9.816	0.345	0.176
590.0	13.18	13.83	11.95	9.538	9.408	10.35	11.42	12.37	17.11	34.83	28.64	14.99	12.46	16.25	74.41	131.1	25.00	2.421	1.126	0.848	0.755	0.724	0.707	0.669	0.566	0.530	0.480	0.502	0.510	0.482	0.508	0.392	0.443	0.349	0.424	0.458	0.367	0.282	0.316	0.283	0.264	0.253	0.291	0.269	0.238	0.239	0.238	0.229	0.212	0.222	0.194	0.268	0.343	0.726	1.140	0.943	0.514	0.267	0.319	0.259	0.247	0.286	0.314	0.405	0.443	0.320	0.295	0.267	0.330	0.351	0.494	1.380	6.392	18.78	28.28	14.42	1.250
595.0	19.50	16.64	15.27	13.90	14.63	17.89	17.90	20.96	25.95	36.15	48.69	30.93	23.83	19.83	32.39	104.1	95.96	7.381	1.664	0.918	0.809	0.573	0.692	0.544	0.543	0.510	0.524	0.468	0.512	0.494	0.487	0.429	0.351	0.351	0.410	0.434	0.405	0.322	0.329	0.268	0.320	0.250	0.273	0.279	0.250	0.240	0.216	0.244	0.227	0.210	0.185	0.227	0.278	0.316	0.730	0.894	0.884	0.457	0.381	0.292	0.342	0.350	0.272	0.385	0.459	0.437	0.398	0.380	0.298	0.338	0.390	0.544	1.671	4.448	9.663	25.92	17.05
600.0	27.19	25.93	21.51	20.25	20.24	23.79	29.13	34.49	45.17	55.91	76.00	67.01	52.57	41.38	37.76	72.46	145.0	31.73	3.148	0.998	0.800	0.786	0.607	0.490	0.506	0.465	0.476	0.444	0.494	0.367	0.393	0.350	0.295	0.427	0.485	0.393	0.543	0.340	0.335	0.237	0.293	0.256	0.300	0.231	0.248	0.222	0.196	0.308	0.232	0.209	0.173	0.205	0.240	0.284	0.466	0.762	0.909	0.688	0.444	0.317	0.488	0.438	0.411	0.505	0.518	0.641	0.599	0.520	0.425	0.433	0.441	0.434	0.705	1.400	2.616	11.09	27.77
605.0	37.15	36.61	29.11	27.55	25.93	32.09	49.84	64.17	80.16	107.1	126.1	140.4	114.4	90.06	78.25	78.95	159.0	90.85	6.733	1.162	0.729	0.715	0.556	0.469	0.489	0.485	0.448	0.453	0.497	0.394	0.407	0.346	0.321	0.424	0.459	0.400	0.525	0.480	0.378	0.353	0.294	0.426	0.372	0.261	0.254	0.289	0.238	0.324	0.289	0.221	0.205	0.252	0.267	0.383	0.308	0.661	0.908	0.869	0.676	0.502	0.547	0.649	0.716	0.782	0.727	0.891	0.912	0.823	0.805	0.660	0.587	0.635	0.750	0.824	1.107	3.275	14.78
610.0	50.51	53.89	42.51	37.08	37.63	49.82	70.11	94.27	126.0	159.0	187.3	211.8	185.7	142.2	126.9	105.7	142.2	167.2	29.89	1.997	0.718	0.733	0.560	0.548	0.447	0.436	0.481	0.416	0.422	0.406	0.322	0.356	0.342	0.392	0.443	0.410	0.422	0.513	0.488	0.448	0.431	0.379	0.404	0.341	0.308	0.353	0.318	0.335	0.361	0.253	0.241	0.296	0.323	0.358	0.307	0.466	0.841	1.045	0.888	0.774	0.801	0.843	0.972	1.038	1.060	1.266	1.240	1.366	1.144	1.058	0.952	0.879	0.882	0.999	0.924	1.283	4.316
615.0	59.07	60.69	51.57	42.31	42.55	51.73	78.16	100.1	128.1	161.0	188.5	212.8	194.5	150.6	132.2	108.3	115.4	134.2	83.35	4.156	0.834	0.734	0.556	0.518	0.428	0.361	0.440	0.355	0.418	0.394	0.385	0.385	0.445	0.324	0.429	0.405	0.414	0.428	0.529	0.493	0.433	0.330	0.354	0.302	0.295	0.290	0.304	0.348	0.351	0.333	0.283	0.293	0.261	0.305	0.341	0.425	0.602	0.836	0.988	0.851	0.827	0.950	1.054	0.984	1.153	1.076	1.206	1.267	1.150	1.181	1.049	0.956	1.021	0.958	0.841	0.886	1.510
620.0	58.33	69.82	57.40	47.77	45.72	54.71	75.35	104.4	120.0	154.9	183.0	198.8	195.6	152.8	133.7	104.6	103.3	99.23	103.3	18.31	0.955	0.804	0.602	0.562	0.451	0.383	0.335	0.439	0.420	0.439	0.402	0.355	0.324	0.356	0.390	0.390	0.393	0.415	0.484	0.597	0.317	0.467	0.439	0.336	0.343	0.329	0.269	0.361	0.310	0.338	0.299	0.409	0.277	0.358	0.427	0.431	0.493	0.741	0.904	0.993	0.850	0.838	0.935	0.980	1.065	1.087	1.152	1.276	1.262	1.235	1.142	0.944	0.957	0.925	0.751	0.814	0.968
625.0	60.36	70.13	59.02	49.48	46.38	56.05	74.25	99.02	121.8	149.4	177.7	196.1	192.5	157.7	132.4	105.5	99.61	79.70	81.28	51.47	1.252	0.610	0.610	0.531	0.417	0.472	0.368	0.384	0.339	0.421	0.416	0.415	0.441	0.328	0.350	0.280	0.423	0.354	0.427	0.545	0.458	0.422	0.407	0.335	0.377	0.367	0.341	0.370	0.484	0.335	0.292	0.343	0.347	0.354	0.399	0.413	0.530	0.631	0.789	1.019	0.973	0.885	0.880	1.026	1.024	1.132	1.047	1.259	1.261	1.247	1.116	0.955	1.016	0.913	0.751	0.784	0.755
630.0	71.67	82.24	66.92	51.50	48.73	58.92	77.10	96.84	118.0	149.7	175.2	193.8	189.0	163.8	137.0	105.8	99.45	71.98	40.19	74.22	16.65	0.762	0.632	0.545	0.477	0.429	0.412	0.416	0.377	0.358	0.355	0.437	0.337	0.324	0.368	0.349	0.439	0.386	0.403	0.433	0.484	0.368	0.403	0.323	0.389	0.388	0.379	0.413	0.389	0.378	0.285	0.370	0.385	0.390	0.412	0.433	0.489	0.615	0.697	0.819	0.912	1.030	0.934	1.007	1.078	1.034	1.159	1.228	1.103	1.254	1.139	1.011	0.946	0.972	0.784	0.738	0.781
635.0	77.29	84.47	71.10	55.90	48.52	58.37	74.22	93.97	116.6	139.9	174.6	191.5	186.3	162.5	141.3	105.6	100.6	70.29	21.18	44.11	57.18	2.375	0.522	0.541	0.535	0.476	0.309	0.371	0.378	0.305	0.416	0.343	0.357	0.333	0.395	0.336	0.426	0.369	0.404	0.382	0.380	0.439	0.360	0.279	0.312	0.384	0.469	0.420	0.434	0.357	0.300	0.358	0.340	0.377	0.363	0.440	0.474	0.506	0.673	0.722	1.000	0.988	0.866	0.966	1.100	0.961	1.048	1.160	1.174	1.110	1.142	1.050	0.934	0.937	0.789	0.769	0.716
640.0	81.63	92.47	75.23	56.71	49.90	59.65	73.50	90.57	110.2	134.7	167.2	179.0	174.0	157.9	140.0	102.7	97.92	67.40	16.45	20.11	69.15	13.94	0.650	0.597	0.461	0.457	0.314	0.390	0.323	0.280	0.377	0.475	0.339	0.297	0.341	0.401	0.343	0.361	0.355	0.348	0.358	0.499	0.406	0.378	0.324	0.364	0.407	0.371	0.447	0.350	0.282	0.334	0.354	0.328	0.372	0.355	0.489	0.528	0.705	0.690	0.798	1.010	0.929	0.907	0.968	0.981	1.034	1.166	1.057	1.035	1.053	0.951	1.024	0.966	0.820	0.756	0.722
645.0	79.47	101.0	75.32	58.82	47.45	56.33	66.07	84.11	103.4	121.2	153.2	165.5	161.4	140.1	131.6	97.60	88.65	60.23	14.64	8.967	49.38	41.20	0.783	0.531	0.458	0.338	0.499	0.365	0.327	0.336	0.321	0.399	0.333	0.327	0.324	0.352	0.401	0.382	0.413	0.352	0.361	0.414	0.474	0.392	0.323	0.418	0.412	0.354	0.409	0.361	0.343	0.312	0.326	0.375	0.364	0.381	0.439	0.496	0.557	0.692	0.697	0.849	0.938	0.845	0.933	0.926	1.013	0.961	0.950	0.937	0.991	1.041	0.979	0.933	0.699	0.591	0.634
650.0	88.40	106.9	84.43	59.42	48.06	51.82	60.93	76.24	93.61	110.9	137.6	154.0	146.2	127.9	117.8	90.66	79.41	53.64	13.97	5.267	24.70	63.73	5.520	0.621	0.506	0.358	0.386	0.301	0.308	0.311	0.292	0.391	0.306	0.332	0.312	0.271	0.358	0.378	0.329	0.360	0.264	0.316	0.449	0.401	0.349	0.373	0.407	0.477	0.427	0.371	0.354	0.388	0.328	0.380	0.332	0.412	0.538	0.459	0.455	0.626	0.720	0.712	0.724	0.884	0.920	0.930	0.924	0.912	1.046	0.793	0.926	0.912	0.811	0.927	0.699	0.707	0.574
