Sample:	'1
File name:	Default_20211125_161602.FD3
Run date:	'16:09:41, 11/25/2021
Operator:	user
Comment:	'

Instrument
Model:	F-2700 FL Spectrophotometer
Serial number:	2190-003
ROM Version:	4J14000 07

Instrument parameters
Measurement type:	3-D scan
Data mode:	Fluorescence
EX  Start WL:	220.0 nm
EX  End WL:	600.0 nm
EX Sampling interval:	5.0 nm
EM  Start WL:	230.0 nm
EM  End WL:	650.0 nm
EM Sampling interval:	5.0 nm
Scan speed:	12000 nm/min
EX Slit:	5.0 nm
EM Slit:	5.0 nm
PMT Voltage:	700 V
Response:	Auto 
Corrected spectra:	Off
Contour interval:	50.000

Peak integration
Integration method:	Rectangular
Sensitivity:	1
Threshold:	1.000

Peaks
No.	ApexEX/EM(nm)	Height(Data)
1	240.0/260.0	215.2
2	245.0/265.0	299.1
3	245.0/530.0	206.8
4	250.0/270.0	324.3
5	250.0/360.0	 3656
6	250.0/540.0	199.3
7	255.0/280.0	474.0
8	255.0/555.0	164.5
9	260.0/565.0	147.8
10	270.0/315.0	 6676
11	270.0/615.0	363.2
12	275.0/605.0	363.6
13	320.0/360.0	571.1
14	325.0/370.0	536.2
15	330.0/375.0	521.9
16	335.0/380.0	532.1
17	430.0/505.0	43.14
18	445.0/525.0	24.64
19	495.0/270.0	2.919
20	500.0/360.0	16.82
21	500.0/605.0	3.431
22	505.0/275.0	3.826
23	510.0/280.0	4.230
24	515.0/620.0	3.301
25	530.0/315.0	32.91

Data points
	220.0	225.0	230.0	235.0	240.0	245.0	250.0	255.0	260.0	265.0	270.0	275.0	280.0	285.0	290.0	295.0	300.0	305.0	310.0	315.0	320.0	325.0	330.0	335.0	340.0	345.0	350.0	355.0	360.0	365.0	370.0	375.0	380.0	385.0	390.0	395.0	400.0	405.0	410.0	415.0	420.0	425.0	430.0	435.0	440.0	445.0	450.0	455.0	460.0	465.0	470.0	475.0	480.0	485.0	490.0	495.0	500.0	505.0	510.0	515.0	520.0	525.0	530.0	535.0	540.0	545.0	550.0	555.0	560.0	565.0	570.0	575.0	580.0	585.0	590.0	595.0	600.0
230.0	73.36	64.53	92.02	110.6	39.79	22.21	19.04	16.19	14.12	13.44	11.49	10.56	8.917	7.478	5.776	5.264	4.233	4.005	3.519	3.407	2.861	2.715	2.496	2.575	2.363	2.190	2.260	2.100	2.003	2.103	2.027	1.813	1.653	1.733	1.667	1.505	1.475	1.409	1.380	1.349	1.332	1.256	1.262	1.235	1.235	1.199	1.083	1.141	1.103	1.078	1.136	1.148	1.036	1.169	0.980	1.078	1.179	1.217	1.152	1.080	1.171	1.172	1.199	1.194	1.189	1.220	1.247	1.184	1.214	1.213	1.244	1.235	1.331	1.175	1.258	1.328	1.405
235.0	70.48	64.70	64.22	274.4	389.6	74.54	20.27	17.60	15.95	13.17	10.98	10.64	9.221	7.565	5.663	4.380	4.079	3.916	3.385	3.504	2.941	2.721	2.642	2.457	2.343	2.168	2.354	2.107	2.100	1.952	1.935	1.832	1.907	1.785	1.866	1.582	1.393	1.473	1.426	1.399	1.303	1.362	1.191	1.372	1.238	1.173	1.099	1.158	1.078	0.989	1.594	2.841	2.166	1.383	0.974	1.004	1.180	1.151	1.036	1.076	1.110	1.264	1.104	1.246	1.158	1.177	1.111	1.186	1.088	1.303	1.213	1.128	1.336	1.218	1.294	1.253	1.322
240.0	68.01	64.98	51.99	192.6	914.2	438.3	70.86	16.41	16.59	13.77	11.27	11.71	9.107	7.591	6.048	5.151	4.262	3.922	3.593	3.521	3.048	2.791	2.635	2.588	2.357	2.178	2.286	1.965	1.870	2.097	1.872	1.962	1.665	1.787	1.904	1.609	1.371	1.460	1.406	1.380	1.387	1.440	1.284	1.249	1.248	1.229	1.116	1.137	0.993	0.961	1.266	3.147	5.035	4.956	2.211	1.121	1.138	1.149	1.204	1.174	1.053	1.208	1.155	1.284	1.178	1.207	1.284	1.204	1.096	1.363	1.249	1.106	1.083	1.090	1.317	1.185	1.324
245.0	73.78	67.17	53.42	76.97	631.9	 1711	395.2	40.81	15.05	14.95	10.88	11.10	10.00	7.967	6.253	5.193	4.039	3.724	3.417	3.521	3.179	2.678	2.664	2.413	2.173	2.369	2.071	2.123	2.109	2.046	1.638	2.019	1.629	1.747	1.595	1.485	1.284	1.458	1.357	1.365	1.513	1.281	1.379	1.357	1.316	1.050	1.036	1.184	1.045	0.957	0.932	1.674	3.624	8.297	8.659	5.159	1.859	1.063	1.128	1.121	1.147	1.166	1.260	1.450	1.151	1.152	1.251	1.126	1.232	1.334	1.154	1.325	1.216	1.092	1.283	1.305	1.388
250.0	74.48	61.23	58.21	66.86	188.9	936.2	 1990	 1402	128.6	16.73	11.53	11.53	9.704	7.711	6.557	5.601	4.128	3.837	3.542	3.699	3.134	2.575	2.717	2.496	2.428	2.163	2.067	2.295	2.003	2.066	1.766	1.856	1.696	1.731	1.611	1.558	1.300	1.512	1.525	1.325	1.357	1.364	1.331	1.404	1.169	1.154	1.138	1.119	1.016	0.983	0.993	1.319	1.665	3.423	5.596	9.208	11.75	10.29	5.706	1.813	1.244	1.121	1.206	1.266	1.223	1.224	1.222	1.197	1.280	1.291	1.219	1.321	1.263	1.223	1.280	1.341	1.402
255.0	71.98	60.92	57.43	107.7	140.4	244.3	746.8	 2953	 2088	168.2	14.44	12.78	10.36	8.888	6.639	5.793	4.879	3.944	3.751	3.646	2.775	3.086	2.691	2.424	2.376	2.326	2.055	2.090	2.382	2.008	1.852	1.754	1.787	1.866	1.650	1.487	1.270	1.439	1.456	1.353	1.312	1.343	1.438	1.201	1.226	1.172	1.116	1.094	0.964	1.044	1.138	1.736	1.413	1.664	2.086	3.120	5.336	11.51	19.96	18.87	7.462	1.624	1.297	1.239	1.231	1.360	1.247	1.263	1.368	1.254	1.074	1.266	1.314	1.311	1.283	1.275	1.285
260.0	77.17	70.03	44.16	80.31	215.2	159.5	204.6	 1281	 3786	 1826	99.68	15.50	12.09	9.517	7.189	6.214	5.054	4.187	3.798	3.552	2.847	3.098	2.569	2.424	2.581	2.308	2.016	2.396	2.300	1.995	1.846	2.009	1.862	2.011	1.679	1.466	1.416	1.521	1.354	1.353	1.466	1.367	1.383	1.262	1.365	1.221	1.124	1.076	0.971	1.004	1.048	1.790	1.970	1.658	1.404	1.644	2.264	4.053	9.999	21.73	26.65	16.99	4.429	1.379	1.381	1.360	1.247	1.404	1.312	1.207	1.234	1.270	1.316	1.287	1.279	1.352	1.311
265.0	77.05	65.71	44.04	50.53	187.2	299.1	111.8	340.7	 1939	 5171	 1382	45.17	13.04	9.876	7.952	6.175	5.189	4.162	3.895	3.560	3.420	2.911	2.753	2.504	2.399	2.419	2.176	2.344	2.054	2.050	2.120	2.075	1.853	1.715	1.746	1.480	1.340	1.386	1.412	1.303	1.363	1.320	1.368	1.333	1.461	1.223	1.083	1.034	1.113	0.940	0.975	1.418	1.808	2.592	2.056	1.546	1.435	1.935	3.438	7.836	17.37	30.42	26.11	12.22	2.563	1.435	1.166	1.097	1.238	1.248	1.270	1.291	1.387	1.317	1.252	1.336	1.285
270.0	79.25	63.16	46.77	38.98	80.71	254.3	324.3	178.0	507.0	 2312	 4482	 2804	86.23	13.68	9.156	7.128	5.451	4.704	3.815	3.599	3.633	3.126	2.866	2.679	2.461	2.454	2.346	2.169	2.076	2.061	2.105	1.935	1.804	1.742	1.775	1.421	1.435	1.459	1.312	1.411	1.365	1.280	1.381	1.381	1.324	1.240	1.115	1.117	1.078	1.020	0.940	1.259	1.336	1.789	2.293	2.919	2.406	1.765	1.795	2.945	5.139	10.23	16.90	25.06	27.93	17.81	8.571	2.065	1.259	1.275	1.329	1.234	1.377	1.243	1.231	1.301	1.311
275.0	79.19	60.74	51.88	36.73	43.62	95.66	291.4	382.6	205.7	577.3	 1466	 5409	 4443	96.80	10.79	8.046	6.264	5.065	4.019	4.081	3.726	3.147	2.929	2.805	2.654	2.359	2.409	2.125	2.299	2.355	2.100	1.922	1.785	1.768	1.678	1.602	1.511	1.325	1.408	1.576	1.401	1.320	1.345	1.446	1.297	1.272	1.159	1.223	1.152	0.892	0.959	1.140	1.075	1.222	1.392	2.036	3.142	3.826	2.572	1.868	2.426	3.404	4.910	7.031	11.57	23.68	38.17	25.91	9.397	1.586	1.470	1.173	1.318	1.237	1.429	1.377	1.273
280.0	76.76	71.80	54.57	43.02	41.84	57.41	142.9	474.0	324.1	225.9	436.1	 2139	 7033	 1147	54.41	9.906	7.170	5.878	4.553	4.262	3.810	3.047	3.138	2.655	2.896	2.539	2.239	2.396	2.133	2.283	2.012	2.001	1.768	1.801	1.675	1.644	1.552	1.660	1.347	1.463	1.418	1.351	1.328	1.358	1.276	1.368	1.207	1.249	1.042	0.963	0.972	1.224	1.153	1.172	1.121	1.458	2.002	3.150	4.230	3.503	2.215	2.048	2.325	2.840	4.029	7.702	17.98	33.98	32.72	20.27	5.051	1.379	1.422	1.319	1.441	1.395	1.367
285.0	93.71	62.97	53.76	52.40	52.72	64.94	99.09	288.1	643.6	278.4	258.0	661.5	 3342	 7739	813.4	23.52	8.474	6.824	5.055	4.258	3.743	3.472	3.374	2.478	3.061	2.916	2.589	2.666	2.521	2.440	2.083	1.969	1.951	1.788	1.501	1.568	1.499	1.696	1.295	1.290	1.332	1.332	1.367	1.318	1.309	1.401	1.136	1.188	1.003	0.969	0.958	1.118	1.062	1.120	1.190	1.458	1.524	2.016	3.131	4.644	4.509	2.910	2.171	2.298	2.650	3.443	5.717	11.84	25.41	41.80	29.71	13.21	2.471	1.281	1.429	1.430	1.578
290.0	90.03	61.84	66.47	80.81	116.0	185.6	258.8	329.3	704.2	991.3	787.6	681.1	 1210	 3745	 4926	 2384	46.67	8.795	6.243	4.821	4.107	3.894	3.201	3.025	2.880	2.921	2.644	2.492	2.453	2.483	2.174	2.089	2.070	1.860	1.814	1.660	1.602	1.505	1.383	1.375	1.370	1.399	1.367	1.254	1.229	1.364	1.128	1.210	1.098	1.033	1.051	1.444	1.412	1.730	1.711	2.011	2.368	2.839	3.350	4.193	5.254	6.481	6.269	5.154	4.214	4.076	4.633	5.670	8.725	15.02	23.32	31.16	31.09	18.75	8.891	2.326	1.589
295.0	101.1	73.64	72.70	146.6	320.6	511.5	939.1	 1324	 1708	 2019	 2556	 1652	 1495	 1687	 2015	 5792	 3224	53.71	8.089	5.987	5.049	4.387	3.422	3.361	3.136	3.076	2.778	2.607	2.416	2.261	2.229	1.880	1.871	1.885	1.854	1.820	1.694	1.553	1.600	1.594	1.428	1.370	1.430	1.364	1.200	1.352	1.123	1.232	1.099	1.070	1.315	1.914	2.395	3.203	3.685	4.622	5.856	6.624	7.435	8.787	9.923	11.02	11.71	13.99	12.93	10.22	9.065	8.646	8.790	8.880	9.771	10.85	14.68	28.22	41.46	27.77	10.77
300.0	106.8	86.73	96.20	225.6	576.5	 1138	 1841	 2613	 3251	 3689	 4191	 3869	 2766	 1899	 1242	 2719	 6422	639.4	33.86	6.938	5.756	4.747	3.869	3.551	3.209	2.884	2.575	2.792	2.684	2.668	2.432	2.133	1.988	2.157	1.938	1.867	1.623	1.482	1.576	1.443	1.487	1.411	1.561	1.425	1.312	1.373	1.083	1.303	1.177	1.306	1.687	2.774	3.476	4.952	6.552	8.246	10.09	11.96	13.85	15.61	17.33	18.30	18.91	19.98	21.04	20.11	16.46	14.16	12.84	10.72	9.172	7.837	7.574	10.49	21.80	43.00	36.55
305.0	109.0	95.43	110.1	297.1	792.9	 1617	 2628	 3663	 4522	 5171	 5413	 5392	 4058	 2466	 1352	 1096	 3599	 5150	495.8	15.54	6.608	5.662	4.495	3.596	3.744	3.187	2.916	2.387	2.732	2.638	2.582	2.372	2.109	2.122	2.115	1.816	1.617	1.545	1.564	1.560	1.403	1.635	1.463	1.553	1.303	1.478	1.241	1.259	1.272	1.277	1.908	3.405	4.433	6.786	8.332	11.47	14.42	16.83	18.84	21.62	23.88	25.16	26.06	26.37	25.51	25.87	24.34	20.80	16.99	14.15	11.49	8.612	7.251	6.392	7.796	15.95	37.23
310.0	109.4	91.92	127.9	348.3	958.5	 1952	 3153	 4431	 5488	 6168	 6331	 5960	 4984	 3165	 1595	788.1	 1045	 2886	 4095	 1751	32.42	6.920	5.424	4.181	3.704	3.430	3.009	2.963	2.754	2.413	2.728	2.375	2.106	2.075	2.005	1.811	1.654	1.627	1.481	1.685	1.498	1.519	1.583	1.401	1.295	1.398	1.262	1.304	1.348	1.381	2.048	3.816	5.023	7.943	9.744	13.74	17.01	19.53	22.79	25.60	27.98	30.26	30.85	30.85	29.52	27.88	26.85	25.45	22.21	18.28	13.58	10.21	7.894	5.820	4.804	5.960	10.81
315.0	97.87	93.88	137.5	392.8	 1037	 2098	 3350	 4717	 5867	 6576	 6676	 6148	 5003	 3640	 1926	801.6	458.2	748.1	 1601	 5155	 2370	40.96	6.578	5.169	4.032	3.813	3.033	3.068	2.649	2.858	2.528	2.390	2.176	2.082	2.177	1.706	1.678	1.817	1.463	1.532	1.516	1.529	1.399	1.245	1.467	1.393	1.350	1.254	1.334	1.591	2.253	4.031	5.476	8.539	10.30	14.30	17.76	21.10	24.54	27.42	30.03	32.31	32.91	32.40	30.74	29.14	26.86	25.22	22.61	20.25	16.80	11.99	9.082	6.116	4.439	3.893	4.639
320.0	93.86	99.32	163.3	450.0	 1070	 2060	 3266	 4559	 5627	 6308	 6484	 5944	 4804	 3471	 2241	935.7	399.1	316.0	457.4	 2484	 5116	465.9	28.12	6.036	4.813	3.860	3.335	3.041	3.069	2.828	2.720	2.361	2.262	2.165	2.153	1.992	1.724	1.679	1.689	1.799	1.482	1.446	1.360	1.422	1.424	1.322	1.186	1.303	1.392	1.706	2.505	4.433	5.898	8.459	10.45	14.06	17.25	20.52	23.29	26.66	29.15	30.55	31.89	31.11	29.41	27.91	25.94	24.22	21.75	18.58	16.83	14.12	10.67	6.860	5.073	3.810	3.526
325.0	103.7	107.9	228.5	558.2	 1125	 2017	 3088	 4273	 5211	 5856	 5996	 5532	 4532	 3234	 2244	 1232	491.1	290.5	239.8	698.6	 3156	 3732	392.7	15.01	5.347	4.534	3.714	3.306	3.177	2.635	2.506	2.566	2.206	2.073	1.911	1.793	1.671	1.741	1.554	1.648	1.490	1.536	1.377	1.462	1.435	1.479	1.184	1.311	1.642	1.977	2.903	4.531	5.961	8.576	10.27	13.68	16.40	19.42	21.84	24.16	27.36	28.44	29.33	28.79	28.05	26.22	24.46	22.43	20.81	16.99	15.45	13.50	12.14	9.127	6.433	4.588	3.607
330.0	106.0	105.7	291.5	745.2	 1338	 2118	 2997	 3920	 4628	 5155	 5257	 4871	 4056	 2944	 1993	 1368	777.5	385.1	256.4	296.3	890.9	 2503	 3419	 1505	27.15	6.220	4.456	3.784	3.660	3.038	2.823	2.558	2.227	2.142	2.048	1.848	1.720	1.721	1.655	1.675	1.562	1.608	1.552	1.462	1.453	1.415	1.237	1.471	1.911	2.366	3.391	5.362	6.518	8.976	10.08	13.12	15.61	17.91	20.11	21.53	23.71	25.17	25.68	25.16	24.37	23.28	21.92	20.63	18.40	16.22	13.83	12.29	10.87	9.243	8.179	6.482	5.214
335.0	105.7	115.7	329.9	959.3	 1640	 2367	 3070	 3662	 4099	 4431	 4431	 4111	 3495	 2629	 1803	 1214	960.5	617.1	330.5	256.0	346.9	676.0	 1527	 4513	 2035	35.88	5.726	4.743	3.803	3.112	3.059	2.603	2.510	2.335	1.991	2.061	1.832	1.843	1.593	1.679	1.681	1.605	1.573	1.449	1.314	1.311	1.346	1.672	2.134	2.767	4.103	6.363	7.626	9.991	10.89	13.35	15.28	16.72	18.31	19.27	20.82	21.59	22.00	21.53	20.73	19.65	18.83	17.64	16.26	14.39	12.61	11.31	9.904	8.129	7.196	6.813	7.274
340.0	98.16	124.3	384.3	 1090	 1861	 2602	 3134	 3526	 3734	 3950	 3831	 3537	 3085	 2380	 1687	 1152	886.6	791.8	454.6	281.8	253.9	285.4	442.1	 2324	 4452	 1576	24.88	5.318	4.433	3.294	3.373	2.658	2.449	2.280	2.040	1.919	1.879	1.841	1.663	1.663	1.622	1.579	1.571	1.552	1.331	1.337	1.363	1.673	2.102	3.057	4.332	7.298	8.545	10.54	11.47	13.85	15.27	16.38	17.12	17.53	18.80	19.16	19.86	18.93	17.77	16.53	15.98	15.27	14.68	12.88	11.55	10.22	9.390	8.016	7.060	6.404	6.500
345.0	104.8	131.5	408.7	 1180	 2096	 2828	 3310	 3491	 3486	 3558	 3341	 3043	 2663	 2130	 1575	 1116	804.2	756.6	628.5	343.1	257.3	221.0	202.5	642.7	 2798	 4600	341.4	13.65	5.664	4.003	3.609	2.790	2.807	2.246	2.041	2.011	1.854	1.667	1.554	1.721	1.532	1.567	1.458	1.436	1.415	1.378	1.304	1.648	2.220	3.050	4.807	8.116	9.440	11.61	12.35	14.21	15.80	16.34	16.12	16.56	17.37	17.40	17.35	16.75	15.28	14.76	13.98	13.79	12.87	11.72	10.61	9.680	8.882	7.453	6.805	5.970	5.831
350.0	106.5	118.5	400.9	 1233	 2310	 3091	 3488	 3441	 3245	 3113	 2799	 2475	 2194	 1811	 1402	 1046	774.3	652.0	642.2	516.5	324.5	241.5	184.8	235.8	762.7	 2624	 2833	 1330	26.22	5.172	3.941	3.255	2.777	2.380	2.200	1.990	1.917	1.665	1.580	1.640	1.547	1.527	1.517	1.551	1.406	1.364	1.403	1.573	2.204	3.143	4.995	8.619	10.31	12.30	13.28	15.00	15.87	16.22	15.80	15.82	16.16	15.49	15.30	14.18	12.94	11.95	11.87	11.30	10.83	10.06	9.551	8.694	8.168	7.146	6.697	5.944	5.856
355.0	103.9	115.5	402.2	 1271	 2403	 3304	 3623	 3421	 3039	 2781	 2379	 2016	 1798	 1535	 1247	987.0	771.8	631.9	560.4	581.5	487.1	299.1	221.5	180.6	259.2	649.6	 1259	 3769	 2085	33.47	5.075	3.763	3.021	2.581	2.264	2.058	1.970	1.925	1.754	1.568	1.754	1.524	1.424	1.643	1.422	1.338	1.264	1.583	2.213	3.031	5.004	8.765	10.67	13.43	13.66	15.77	16.70	16.71	14.83	14.78	14.71	14.10	13.36	11.99	10.69	10.04	9.520	9.635	9.310	8.619	8.173	7.697	7.535	6.824	6.347	5.915	5.809
360.0	101.4	111.1	389.3	 1230	 2431	 3362	 3656	 3356	 2915	 2579	 2111	 1761	 1569	 1366	 1157	943.8	771.1	646.1	553.9	529.5	571.1	407.3	261.8	199.0	173.7	224.5	350.1	 1942	 4492	 1388	24.51	4.986	3.505	2.719	2.339	2.151	2.061	1.868	1.826	1.578	1.855	1.473	1.587	1.609	1.394	1.358	1.385	1.566	2.097	2.956	5.166	8.786	10.88	13.22	14.31	16.24	16.82	15.94	14.83	13.90	13.50	13.18	12.47	10.76	9.911	8.925	8.608	8.252	8.340	7.699	7.518	7.430	6.901	6.533	6.192	6.069	5.690
365.0	100.2	121.0	363.5	 1215	 2456	 3363	 3642	 3271	 2769	 2401	 1915	 1571	 1415	 1256	 1092	917.1	770.6	660.6	574.7	509.6	541.9	531.2	335.7	234.6	183.2	154.9	149.5	531.2	 2760	 3940	330.0	13.24	4.165	3.216	2.846	2.225	1.971	2.022	1.767	1.731	1.632	1.572	1.405	1.670	1.516	1.464	1.346	1.567	2.047	2.854	5.207	8.560	10.46	13.62	14.42	15.73	16.31	15.27	14.24	13.79	13.08	12.50	11.67	9.887	9.430	8.269	7.711	7.438	7.482	7.577	7.045	7.014	6.575	6.037	5.874	5.755	5.565
370.0	102.6	117.7	346.1	 1146	 2337	 3239	 3498	 3112	 2596	 2215	 1730	 1400	 1258	 1135	 1014	884.5	770.4	682.6	611.9	539.2	507.7	536.2	489.9	329.2	234.5	179.9	136.9	190.0	732.9	 2191	 2889	 1209	22.72	4.064	3.319	2.625	2.261	2.036	2.029	1.708	1.677	1.564	1.441	1.451	1.421	1.480	1.368	1.530	2.030	2.874	4.681	8.204	10.30	13.02	13.86	15.10	15.29	14.99	13.46	13.01	12.10	11.69	10.77	8.996	8.148	7.480	7.079	6.844	6.858	7.009	6.535	6.709	6.315	5.969	5.962	5.794	5.860
375.0	108.1	100.4	327.4	 1035	 2209	 3049	 3298	 2895	 2403	 2017	 1555	 1254	 1137	 1042	956.7	858.7	776.3	702.1	639.3	581.0	530.5	509.6	521.9	475.6	315.5	227.2	172.3	144.6	233.3	539.2	 1289	 3304	 1735	29.41	4.390	3.132	2.566	2.080	2.037	1.821	1.748	1.698	1.733	1.505	1.341	1.442	1.497	1.614	1.953	2.543	4.458	7.847	9.626	12.28	13.23	14.24	14.50	13.67	12.44	11.40	10.88	10.47	9.750	8.487	7.340	6.664	6.681	6.634	6.280	6.190	6.257	6.236	6.305	5.800	6.020	5.651	5.613
380.0	106.4	106.1	300.8	986.0	 2046	 2853	 3059	 2705	 2223	 1877	 1449	 1169	 1058	991.5	913.2	832.4	769.7	717.0	659.9	609.9	558.1	519.9	501.1	532.1	424.2	276.5	208.2	159.2	141.9	181.2	341.9	 1671	 3526	 1128	20.95	3.831	2.742	2.385	2.103	1.997	1.788	1.674	1.719	1.602	1.385	1.322	1.523	1.593	1.879	2.494	4.249	7.306	8.934	11.29	12.18	13.34	13.81	12.52	11.92	10.69	10.30	9.598	8.997	8.441	6.801	6.319	6.248	5.898	6.144	5.944	5.810	5.773	6.271	5.698	5.868	6.038	5.805
385.0	101.4	110.9	271.3	927.8	 1898	 2661	 2851	 2508	 2066	 1745	 1354	 1113	 1018	953.4	883.5	817.7	763.1	719.1	671.6	627.7	577.3	542.1	503.2	512.4	501.8	348.1	242.1	185.7	140.8	117.5	129.2	448.3	 2142	 2619	274.2	9.994	3.228	2.673	2.340	1.981	1.778	1.663	1.867	1.497	1.416	1.450	1.370	1.694	1.685	2.394	3.921	6.878	8.591	10.86	11.29	12.55	12.81	11.52	11.43	10.02	9.973	9.178	8.474	7.592	6.422	5.928	6.116	5.520	5.785	5.801	5.859	5.917	6.356	5.546	5.499	5.913	5.705
390.0	99.22	108.4	243.1	827.3	 1711	 2397	 2562	 2267	 1858	 1579	 1243	 1040	960.1	907.4	850.5	790.6	751.3	716.7	679.7	639.8	602.0	570.1	529.6	497.9	492.0	451.0	320.4	227.1	172.2	130.4	102.5	148.5	564.2	 1548	 2398	965.7	18.50	3.645	2.518	2.082	1.823	1.692	1.684	1.594	1.522	1.390	1.306	1.497	1.623	2.256	3.555	6.313	7.949	9.829	10.47	11.40	11.31	10.84	10.06	9.116	8.807	8.524	7.802	7.082	6.146	5.715	5.570	5.458	5.568	5.494	5.568	5.814	5.820	5.461	5.549	5.712	5.688
395.0	97.42	93.48	218.4	720.7	 1508	 2130	 2261	 2008	 1666	 1426	 1139	975.3	911.9	860.0	815.7	767.8	740.8	710.9	679.6	646.6	614.0	584.4	550.4	509.5	468.4	457.1	422.4	293.0	211.8	159.8	119.1	101.3	170.6	376.8	 1074	 2717	 1288	24.25	3.674	2.627	2.210	1.777	1.591	1.705	1.546	1.427	1.409	1.458	1.524	2.038	3.284	5.427	7.054	8.893	9.195	10.29	10.31	9.802	9.025	8.316	8.219	7.613	7.389	6.097	5.906	5.642	5.051	5.078	5.045	5.049	5.562	5.376	5.632	5.410	5.665	5.808	5.820
400.0	107.3	92.47	207.3	660.8	 1390	 1942	 2065	 1846	 1537	 1317	 1070	936.1	877.9	832.5	792.1	751.2	723.0	694.6	674.4	645.4	615.1	592.7	564.3	523.8	475.1	437.8	441.4	366.8	249.1	185.7	140.2	104.3	93.60	120.8	277.6	 1341	 2501	926.0	18.61	3.204	2.357	2.191	1.683	1.759	1.706	1.640	1.401	1.659	1.681	2.002	3.047	5.194	6.247	8.136	8.273	9.327	9.238	9.233	8.539	7.944	7.653	7.412	6.779	6.324	5.646	5.088	5.104	5.005	5.371	5.257	5.047	5.177	5.469	5.311	5.241	5.670	5.595
405.0	106.9	91.62	193.7	628.0	 1252	 1778	 1903	 1709	 1423	 1229	 1020	898.6	852.3	812.6	769.3	731.3	704.1	684.3	666.2	637.3	613.2	593.3	566.9	532.8	485.2	434.8	419.1	411.2	305.7	212.8	162.4	119.7	88.86	73.36	93.59	352.0	 1489	 2245	243.2	9.161	2.980	2.314	1.854	1.807	1.806	1.646	1.483	1.490	1.541	1.987	2.885	5.018	5.985	7.691	7.881	8.955	8.789	8.745	7.952	7.442	6.914	6.828	6.178	5.781	5.306	4.979	5.021	4.878	5.016	5.605	5.076	5.300	5.550	4.883	5.397	5.516	5.699
410.0	96.05	88.09	178.9	548.0	 1124	 1576	 1693	 1536	 1300	 1138	964.4	851.3	809.1	775.4	734.8	701.3	677.5	658.4	642.9	619.8	599.3	582.6	561.4	531.0	492.7	443.2	404.0	390.2	367.5	273.9	193.1	144.1	104.8	77.00	63.30	107.5	388.3	 1307	 1828	837.7	17.14	2.952	2.264	1.930	1.803	1.535	1.454	1.530	1.627	1.941	2.799	4.451	5.418	6.866	6.848	7.822	7.880	7.694	7.293	6.974	6.427	6.332	6.107	5.430	5.127	4.901	4.835	4.793	4.783	5.029	5.048	5.043	5.052	4.953	5.132	5.377	5.482
415.0	96.07	87.28	167.4	490.4	 1006	 1387	 1496	 1388	 1182	 1035	909.8	817.2	766.9	732.6	696.9	663.8	644.4	622.6	610.4	593.2	579.7	563.8	546.6	523.7	489.1	445.0	403.0	366.9	357.1	340.7	244.1	170.9	126.8	92.93	70.98	62.97	113.8	311.9	742.5	 2081	 1159	22.02	2.972	2.341	1.959	1.718	1.471	1.453	1.543	1.796	2.456	3.878	4.895	6.180	6.538	7.132	7.189	7.061	6.711	6.145	5.970	5.763	5.484	5.416	5.155	4.705	4.312	4.536	4.591	4.577	4.754	4.935	4.769	4.481	4.800	5.044	5.204
420.0	86.78	84.98	154.6	435.9	921.0	 1282	 1371	 1285	 1106	988.1	857.3	785.1	738.5	706.0	667.3	637.7	616.2	593.6	584.7	568.0	560.8	543.5	536.6	515.8	483.1	448.1	407.5	370.0	341.7	345.5	295.8	196.9	143.1	107.0	79.44	60.66	57.03	91.84	189.8	 1076	 2203	244.1	14.25	3.025	2.192	1.972	1.399	1.582	1.520	1.660	2.345	4.115	4.598	5.551	5.892	6.626	7.119	6.710	6.279	5.740	5.781	5.536	5.171	5.115	4.510	4.746	4.496	4.323	4.629	4.526	4.469	4.503	4.625	4.485	4.731	5.019	4.876
425.0	93.26	82.33	133.9	396.0	846.3	 1175	 1285	 1217	 1048	942.2	835.2	770.3	720.3	681.8	648.6	607.0	588.9	573.2	561.9	548.4	542.7	529.2	520.0	506.5	478.8	446.5	408.0	370.4	340.3	326.7	320.4	237.4	161.8	121.4	92.68	68.54	51.72	47.14	62.61	282.6	 1319	 1617	206.2	6.737	2.440	2.126	1.675	1.541	1.594	1.651	2.078	3.769	4.303	5.214	5.495	6.092	6.442	6.295	6.141	5.613	5.790	5.387	5.238	4.846	4.360	4.607	4.546	4.461	4.365	4.652	4.448	4.327	4.548	4.297	4.852	4.895	4.762
430.0	101.3	84.10	133.3	377.9	761.5	 1070	 1168	 1121	986.8	892.5	808.2	743.2	688.8	654.9	615.2	580.8	558.3	542.8	533.7	522.6	516.8	508.5	504.1	490.8	468.8	438.8	407.8	379.9	347.7	321.0	306.8	280.4	205.9	142.7	109.2	81.36	61.24	46.00	39.82	81.46	340.7	926.3	 1353	646.1	14.79	2.638	1.893	1.518	1.653	1.710	2.262	3.456	3.827	4.994	5.057	5.859	6.070	5.725	5.611	5.504	5.434	5.338	5.051	4.778	4.596	4.454	4.288	4.211	4.290	4.350	4.356	4.251	4.242	4.365	4.581	4.556	4.711
435.0	107.9	89.75	134.3	345.2	688.7	964.1	 1074	 1033	944.1	852.9	781.5	726.7	668.0	626.9	588.2	550.0	528.3	515.3	504.6	498.6	485.6	486.0	483.2	472.0	455.5	430.5	408.4	381.0	357.1	332.3	300.0	276.1	250.7	180.3	128.5	97.69	73.65	53.96	42.79	40.46	92.49	220.1	596.0	 1850	894.9	18.72	2.324	1.965	1.736	1.668	2.205	3.246	3.738	4.511	4.628	5.265	5.650	5.366	5.339	5.173	5.146	5.064	4.900	4.572	4.256	4.474	4.254	4.484	4.239	4.031	4.428	4.238	3.956	4.158	4.124	4.452	4.351
440.0	112.6	86.74	132.7	325.8	639.5	908.2	987.9	981.3	902.9	836.8	762.0	710.0	656.0	610.0	564.8	525.2	505.9	489.8	480.7	472.3	470.1	468.2	468.7	460.4	444.4	425.5	401.3	382.2	360.2	336.7	302.4	269.1	256.1	214.3	148.2	108.7	83.83	61.62	47.96	35.74	39.73	62.99	152.0	 1011	 1862	222.9	10.44	2.404	1.869	1.797	1.940	3.409	3.551	4.409	4.309	5.098	5.348	5.391	5.522	5.021	4.813	4.979	4.811	4.375	4.290	4.295	4.187	4.085	4.056	4.096	4.095	4.122	4.008	4.235	4.289	3.952	4.548
445.0	100.0	95.94	128.9	306.1	609.9	849.9	932.9	933.7	854.8	806.6	744.3	684.7	632.4	587.0	546.0	505.7	484.3	467.4	457.1	456.1	452.6	449.0	446.6	446.4	432.2	413.4	396.0	377.0	357.7	340.5	306.1	268.5	244.6	230.2	173.8	120.5	90.61	69.17	52.86	38.50	30.43	30.38	46.50	268.1	 1204	 1521	165.6	4.661	2.056	1.833	2.091	2.989	3.288	4.121	4.268	4.775	5.266	5.181	5.114	4.871	4.501	4.887	4.685	4.214	4.250	4.149	4.225	3.946	4.119	3.978	4.071	4.185	3.989	4.297	4.274	4.119	3.917
450.0	87.88	96.34	120.5	278.6	548.4	772.3	857.2	858.1	802.4	763.2	697.5	657.5	596.1	548.6	503.9	468.9	447.1	431.4	424.5	418.7	416.9	416.2	418.8	417.2	407.0	393.8	377.6	362.6	349.9	332.3	305.0	267.4	235.9	213.9	191.5	143.1	100.6	76.17	58.16	43.08	32.78	26.13	25.12	70.94	313.6	922.0	 1175	449.4	10.99	2.194	2.240	3.118	3.277	3.723	3.970	4.723	4.697	4.688	4.709	4.585	4.443	4.757	4.415	4.394	4.180	4.014	3.728	3.758	3.934	3.646	4.040	3.897	3.850	3.890	3.881	3.886	3.863
455.0	85.10	82.23	112.7	250.6	497.2	691.0	779.1	776.8	745.3	701.7	653.4	615.2	552.8	508.3	461.7	428.8	406.1	392.8	381.2	379.2	377.4	381.9	384.0	379.9	374.8	364.9	353.6	342.8	331.9	320.3	295.7	263.0	229.6	197.9	179.3	163.1	117.1	81.40	63.13	48.62	36.80	28.39	22.78	28.84	80.27	215.6	515.3	 1345	549.2	12.05	2.576	3.054	3.081	3.711	3.705	4.131	4.317	4.449	4.236	4.452	4.218	4.371	4.333	4.119	3.858	3.850	3.738	3.629	3.698	3.532	3.627	3.808	3.689	3.577	3.595	3.545	3.739
460.0	92.31	77.43	127.0	242.7	447.8	634.8	719.1	716.4	696.7	664.8	623.1	579.5	530.0	479.3	435.8	400.6	376.5	362.9	354.3	352.9	350.8	350.6	355.5	351.2	350.2	342.1	334.2	324.2	317.5	307.3	285.6	254.9	221.6	191.4	164.8	157.4	130.4	89.13	65.71	51.00	39.68	31.28	24.43	21.40	29.73	57.21	129.4	761.0	 1279	153.1	7.635	3.353	3.125	3.624	3.576	4.100	4.009	4.209	4.179	4.186	3.984	4.116	4.046	4.025	3.629	3.741	3.545	3.489	3.577	3.455	3.474	3.451	3.670	3.344	3.566	3.410	3.690
465.0	86.42	73.76	125.9	263.3	405.4	587.2	654.4	669.2	652.1	628.0	590.7	545.1	502.8	451.2	405.9	371.9	348.4	336.4	327.1	327.0	323.8	323.1	327.9	327.0	323.2	318.3	312.4	304.5	299.8	289.5	272.0	248.0	213.9	184.9	156.6	140.5	131.8	98.96	69.52	52.04	40.61	32.86	26.69	21.21	19.82	22.76	37.16	201.4	906.9	 1068	128.4	4.320	3.446	3.466	3.547	4.130	4.020	4.025	3.856	4.059	3.808	4.170	4.022	3.625	3.641	3.411	3.481	3.312	3.199	3.351	3.186	3.363	3.312	3.234	3.246	3.299	3.579
470.0	82.92	68.41	105.2	331.5	456.5	514.9	585.9	605.5	592.8	573.5	537.4	499.3	457.2	406.0	363.9	332.2	311.7	297.8	291.4	289.1	288.5	288.4	292.4	292.3	288.4	284.2	279.4	272.7	274.2	265.8	250.1	226.7	198.6	172.4	147.0	126.0	114.3	104.2	77.81	54.77	42.47	34.27	27.58	22.82	18.79	16.80	17.31	52.24	240.5	729.0	864.6	287.2	10.04	3.701	3.359	3.658	3.722	3.721	3.884	3.790	3.571	3.746	3.564	3.452	3.437	3.309	3.322	3.193	3.234	3.174	3.290	3.060	3.111	3.021	3.080	3.130	3.544
475.0	77.27	73.03	87.06	299.0	650.5	496.6	522.6	537.8	534.4	523.0	491.9	451.1	410.1	364.9	326.2	298.8	276.5	266.7	256.7	253.7	253.2	252.0	258.2	255.5	253.8	252.7	247.7	242.4	245.6	237.9	227.6	205.8	183.3	158.9	136.6	116.7	99.28	92.54	86.40	61.82	44.11	35.12	28.65	24.33	19.96	16.82	13.99	20.13	60.06	170.2	424.8	924.0	176.8	11.35	3.437	3.254	3.556	3.524	3.539	3.392	3.504	3.498	3.537	3.287	3.187	3.106	3.160	2.851	3.148	2.956	3.174	2.917	2.948	2.917	3.186	2.938	3.066
480.0	88.02	76.48	79.12	221.7	825.3	584.4	476.3	499.0	487.7	484.6	457.6	420.7	381.1	340.9	304.1	278.6	254.1	244.4	235.6	233.9	228.8	229.1	235.5	234.0	232.0	230.9	228.7	224.6	226.3	221.1	210.4	193.9	173.6	150.1	127.7	110.2	92.86	81.85	81.70	67.76	47.48	36.48	29.91	25.41	20.78	17.28	14.44	13.26	20.57	43.37	107.8	589.8	918.9	156.3	5.402	3.548	3.476	3.411	3.501	3.295	3.270	3.317	3.236	3.202	2.998	2.874	2.981	2.746	2.929	2.803	2.878	2.779	2.771	2.746	2.620	3.110	2.950
485.0	82.26	74.68	78.72	169.0	718.6	999.0	464.0	471.4	454.3	455.8	426.5	393.0	353.4	321.9	278.2	251.3	234.0	224.0	217.5	212.9	213.6	213.2	215.7	217.4	215.9	213.0	212.0	209.8	207.4	206.2	198.1	182.4	163.4	141.8	123.2	105.4	88.95	76.16	72.80	70.21	52.53	38.04	30.89	26.14	22.51	18.08	14.78	12.25	12.26	15.44	29.07	168.1	772.2	907.2	24.74	4.122	3.385	3.181	3.351	3.151	3.225	3.129	3.030	3.145	2.841	2.978	2.860	2.878	2.798	2.666	2.615	2.622	2.613	2.553	2.660	2.760	2.712
490.0	82.96	68.87	74.39	144.1	414.7	 1249	741.7	424.7	420.0	413.0	388.4	367.1	326.2	292.3	257.6	232.6	214.0	200.8	195.1	192.4	191.4	192.0	193.8	192.8	192.5	191.2	190.2	188.8	187.8	186.1	179.8	167.1	149.0	131.5	115.4	99.48	83.73	72.10	64.60	61.37	57.41	44.20	32.73	26.59	22.88	19.32	15.78	12.85	10.80	9.968	11.84	42.34	214.0	707.2	805.6	113.6	8.882	3.180	3.200	2.970	3.119	3.058	3.045	2.810	2.734	2.883	2.774	2.736	2.722	2.642	2.624	2.556	2.445	2.522	2.511	2.452	2.582
495.0	91.33	65.25	73.59	129.7	266.3	811.9	 1330	428.0	373.8	366.4	351.3	329.0	294.2	261.5	232.6	204.5	190.9	179.3	174.6	168.3	166.0	168.9	169.5	169.7	167.6	168.1	165.2	166.5	165.9	167.0	160.3	146.9	134.8	119.2	105.0	90.06	78.52	67.57	58.03	52.08	50.33	49.77	36.88	27.07	22.80	19.25	16.44	13.73	11.17	9.197	8.401	14.38	52.32	167.3	496.6	876.0	178.2	7.866	3.330	2.849	3.015	2.883	2.830	2.760	2.737	2.653	2.613	2.524	2.595	2.626	2.443	2.166	2.215	2.346	2.490	2.392	2.430
500.0	78.44	69.74	74.57	120.1	215.1	442.6	 1462	702.7	341.5	332.9	326.1	304.0	271.6	239.5	210.1	186.7	172.9	163.5	158.1	152.9	149.6	150.6	151.2	153.5	151.4	151.9	149.8	151.2	150.6	150.2	145.7	133.3	122.0	108.8	96.74	84.02	73.89	63.49	54.46	48.19	44.30	47.20	42.34	28.78	22.41	19.62	16.49	13.68	11.44	9.222	7.799	8.326	16.47	41.90	131.3	615.7	818.4	29.48	4.020	2.932	3.122	3.042	2.724	2.587	2.565	2.602	2.569	2.466	2.425	2.518	2.540	2.112	2.178	2.496	2.262	2.505	2.263
505.0	83.19	68.85	71.98	126.4	191.6	293.7	 1080	 1211	335.8	303.6	298.4	273.7	250.3	222.6	194.9	173.3	160.4	148.5	142.8	134.6	136.7	135.3	136.5	138.4	138.0	135.2	136.0	135.5	135.7	135.4	132.3	122.1	111.9	99.86	87.86	78.50	69.15	58.50	51.33	44.85	40.17	40.74	43.14	32.33	23.59	19.17	16.36	13.73	11.66	9.475	7.938	7.117	8.642	14.08	33.82	179.7	743.6	636.7	24.10	2.994	3.008	2.794	2.602	2.621	2.301	2.435	2.390	2.292	2.361	2.502	2.309	2.204	2.152	2.232	2.155	2.368	2.140
510.0	77.15	72.18	65.37	123.1	181.3	237.9	516.5	 1424	712.9	275.1	265.3	246.2	220.3	195.0	169.5	149.9	138.5	130.1	123.5	119.4	119.0	117.5	117.8	118.9	119.0	116.5	116.6	117.4	117.6	118.3	114.5	107.5	97.87	87.89	78.22	70.01	60.97	52.65	46.40	41.03	36.04	33.05	36.34	34.71	26.32	19.62	16.19	13.67	11.42	9.432	8.282	7.408	6.929	8.029	12.02	44.37	212.9	539.7	454.7	106.2	6.803	2.661	2.506	2.542	2.303	2.279	2.260	2.182	2.290	2.246	2.114	2.162	2.136	2.079	2.088	2.115	2.094
515.0	80.58	65.17	62.53	111.0	184.8	203.3	285.9	798.9	 1468	298.7	231.4	217.1	193.9	170.7	148.9	130.8	118.2	110.5	106.4	102.0	102.5	99.79	102.5	101.6	100.6	100.2	99.34	100.2	102.4	99.97	98.89	93.32	84.47	75.90	68.93	61.54	54.00	47.10	41.96	36.40	32.79	28.91	27.83	30.93	29.83	21.79	16.08	13.34	11.26	9.442	8.382	7.867	6.981	6.695	7.326	14.21	51.37	128.2	354.5	676.4	155.1	4.578	2.646	2.331	2.186	2.255	2.209	2.043	2.098	1.846	1.922	2.047	1.991	2.083	1.975	2.031	2.020
520.0	87.15	73.43	58.91	94.73	189.2	187.8	217.8	392.3	 1553	713.9	208.8	198.8	172.7	153.0	131.7	117.9	106.1	99.98	94.97	90.54	90.20	87.36	90.77	90.45	90.09	88.55	87.46	89.40	89.73	91.02	87.41	82.32	74.67	68.13	62.63	54.66	48.57	43.97	38.15	33.24	29.79	26.81	24.70	24.99	28.21	23.84	17.01	12.93	11.08	9.098	8.259	7.624	7.300	6.513	6.030	7.537	15.14	32.14	97.75	508.9	657.8	27.64	3.037	2.365	2.245	2.302	1.924	1.942	2.020	1.858	1.830	1.721	1.905	1.946	1.945	2.049	2.121
525.0	75.86	68.35	57.59	82.35	176.3	196.0	184.5	238.1	 1031	 1456	211.4	178.7	156.0	138.6	120.9	105.7	97.52	89.16	84.23	82.91	80.17	80.22	80.86	81.59	79.31	77.90	78.03	77.40	80.24	81.39	78.36	74.36	66.97	63.57	55.20	50.33	44.07	39.86	35.36	31.67	28.04	25.09	22.94	21.41	24.20	24.64	18.20	12.74	10.80	8.828	7.721	7.563	7.012	6.356	5.964	5.627	7.202	10.45	24.89	154.8	641.8	424.1	21.57	2.574	2.243	2.112	1.880	1.982	1.866	1.958	1.953	1.812	2.039	2.052	1.797	2.048	1.852
530.0	82.06	63.10	59.27	73.36	138.8	206.8	169.8	182.3	426.1	 1695	671.1	156.7	137.3	120.5	105.3	93.40	84.87	78.28	73.30	71.63	70.11	69.91	69.17	68.85	68.35	68.04	66.82	67.67	68.72	69.48	66.77	63.65	58.34	53.92	48.37	43.72	39.01	35.14	31.69	28.17	25.36	22.51	20.58	19.49	18.57	20.65	19.92	14.06	10.46	8.729	7.429	7.044	6.413	6.574	5.852	5.263	5.490	5.700	8.659	37.55	188.5	389.3	346.1	93.92	6.223	2.169	1.957	1.913	1.788	1.945	1.772	1.714	1.953	1.913	1.712	1.831	1.846
535.0	77.03	65.85	54.88	62.59	111.1	187.2	177.5	150.8	205.3	808.1	 1510	201.6	118.8	104.5	90.36	78.86	73.29	67.01	64.36	61.90	60.55	59.50	59.57	58.58	57.59	56.65	57.07	56.93	59.27	57.99	57.62	53.32	48.37	45.53	41.48	37.36	33.69	30.79	27.26	24.48	22.15	19.60	18.66	17.00	15.85	15.70	17.16	15.92	11.08	8.166	7.198	6.566	6.138	6.129	5.845	5.563	4.808	4.611	4.734	11.10	44.32	93.60	254.6	456.0	137.4	4.018	2.093	1.585	1.665	2.001	1.742	1.681	1.782	1.684	1.552	1.795	1.797
540.0	77.92	61.87	50.92	61.71	92.82	152.9	199.3	136.0	150.8	324.7	 1533	747.3	107.3	95.67	80.44	71.14	63.16	59.80	56.64	54.22	52.83	52.67	52.24	51.39	49.90	50.16	50.54	50.46	50.98	50.65	50.36	48.26	43.02	39.83	36.53	32.98	29.89	27.53	24.71	22.07	20.26	18.28	16.65	15.89	14.53	13.35	14.11	15.37	12.36	8.537	6.851	6.321	5.881	5.682	5.420	5.384	4.766	4.090	4.047	5.212	12.30	23.18	69.85	340.8	470.8	28.11	2.352	1.738	1.756	1.899	1.806	1.635	1.626	1.702	1.527	1.598	1.534
545.0	76.05	63.63	49.11	64.77	79.34	120.2	197.1	133.4	127.7	167.8	909.8	 1543	111.2	84.32	71.99	63.20	57.32	54.30	49.57	48.94	46.13	45.95	45.86	45.78	44.14	43.10	44.09	44.70	44.55	45.19	44.49	42.23	38.28	35.77	33.76	29.22	26.99	24.85	22.17	19.88	18.00	17.05	15.40	14.13	13.09	12.17	11.56	13.24	13.09	9.091	6.620	5.829	5.571	5.350	5.074	5.380	4.838	3.958	3.446	3.634	5.096	7.251	17.75	103.2	442.8	422.5	19.41	1.883	1.546	1.693	1.545	1.598	1.586	1.682	1.723	1.630	1.588
550.0	77.81	56.28	48.67	53.67	70.30	95.51	154.4	154.2	108.3	115.9	329.4	 1572	470.0	71.76	63.03	54.33	48.87	45.19	41.26	40.47	39.33	37.92	38.57	37.63	36.98	36.33	36.92	37.21	37.72	37.77	36.82	34.96	32.12	29.53	27.56	24.64	22.89	20.95	19.12	17.29	15.71	14.32	13.60	12.23	11.55	10.70	9.595	9.921	10.94	9.895	7.072	5.618	4.949	4.813	4.541	4.706	4.591	4.114	3.262	3.287	3.441	3.744	5.861	25.13	128.0	362.9	268.2	69.50	3.899	1.783	1.613	1.673	1.609	1.539	1.557	1.589	1.609
555.0	83.51	58.47	47.30	46.87	62.15	74.37	97.32	164.5	107.5	94.14	138.4	651.0	 1263	109.1	52.88	45.67	41.11	37.14	34.96	32.95	33.10	30.94	31.02	30.35	30.24	30.01	30.32	30.26	30.14	30.80	29.55	28.57	25.42	24.47	22.27	20.77	18.53	17.67	16.05	14.48	13.25	11.96	11.48	10.50	10.02	8.746	7.926	7.777	8.009	8.580	7.860	5.574	4.678	4.226	4.010	4.161	4.040	3.816	3.532	2.998	2.875	2.931	3.283	7.371	30.31	85.91	180.0	291.9	30.50	2.752	1.683	1.557	1.544	1.375	1.490	1.501	1.512
560.0	82.46	61.07	50.16	43.00	58.13	67.87	76.07	141.1	126.0	80.86	91.70	232.9	 1285	414.1	45.93	39.42	34.51	31.61	29.40	29.06	27.46	27.13	26.04	26.17	24.75	25.09	25.33	25.51	25.33	24.77	24.39	24.21	21.70	21.20	18.80	17.47	15.74	14.93	13.22	12.05	11.13	10.56	9.726	8.795	8.699	7.570	7.239	6.592	6.231	6.778	7.436	6.214	4.372	4.066	3.691	3.780	3.594	3.344	3.462	3.010	2.658	2.459	2.417	3.332	8.454	20.94	48.52	205.9	240.6	24.88	2.120	1.446	1.647	1.560	1.598	1.505	1.502
565.0	84.87	57.18	48.54	39.76	50.13	58.88	65.16	102.1	147.8	78.68	77.53	108.4	743.6	963.3	49.36	34.73	31.05	28.39	25.30	24.88	24.02	23.05	22.85	22.16	21.39	21.83	21.38	21.64	22.41	21.50	21.50	20.98	18.91	17.81	16.23	15.26	13.30	12.46	11.35	10.94	10.05	9.133	8.395	8.140	7.525	7.030	6.350	5.771	5.161	5.158	6.306	6.219	4.702	3.684	3.456	3.404	3.145	3.030	3.279	2.976	2.603	2.400	2.307	2.278	3.417	6.264	12.49	61.17	252.8	194.2	17.71	1.758	1.610	1.605	1.444	1.601	1.468
570.0	86.07	59.87	48.66	40.82	46.72	53.85	56.10	73.25	132.4	97.95	69.84	78.51	248.1	 1039	331.8	30.89	25.33	23.41	20.93	20.80	19.60	18.97	18.70	18.52	17.30	18.06	17.33	17.10	18.06	17.76	17.16	16.73	15.41	14.13	13.38	12.64	11.26	10.32	9.413	8.864	8.354	7.680	7.138	6.854	6.426	5.998	5.249	4.876	4.538	4.133	4.508	5.462	4.827	3.757	3.220	3.108	2.932	2.805	2.634	2.674	2.780	2.302	2.284	2.130	2.353	2.996	4.339	15.28	73.70	161.3	167.5	20.21	2.871	1.429	1.505	1.572	1.590
575.0	74.54	54.74	46.70	41.21	43.74	52.05	53.17	61.15	95.20	132.2	75.83	74.76	104.5	437.0	930.0	58.76	21.72	18.72	17.56	17.23	16.04	15.15	15.55	14.05	14.73	14.22	13.70	13.58	14.49	14.57	14.14	13.37	12.48	11.31	10.84	10.03	9.418	8.277	7.737	7.416	6.762	6.364	6.152	5.835	5.286	5.229	4.456	4.263	3.732	3.386	3.386	4.034	4.697	4.142	3.315	2.780	2.673	2.543	2.376	2.518	2.552	2.691	2.103	2.062	2.226	2.230	2.402	5.046	17.89	38.63	101.6	173.1	28.90	2.289	1.643	1.445	1.632
580.0	73.22	58.79	47.96	40.67	44.82	50.62	60.21	68.16	85.19	151.8	100.8	81.98	78.73	155.3	937.9	284.3	19.13	16.47	15.28	14.54	13.72	13.12	13.02	12.07	12.12	12.15	11.45	11.97	12.54	12.06	11.80	10.93	10.61	9.578	9.108	8.490	7.968	7.286	6.874	6.499	5.756	5.649	5.312	4.903	4.711	4.436	4.092	3.581	3.422	2.847	2.839	3.207	3.846	4.068	3.447	2.805	2.387	2.464	2.335	2.388	2.288	2.519	2.728	2.383	2.009	2.027	2.092	2.551	5.495	10.01	27.26	118.7	150.8	22.60	1.844	1.568	1.536
585.0	78.42	59.03	46.67	42.05	45.01	59.47	70.96	83.63	101.2	158.4	146.6	101.8	88.60	83.98	535.1	680.7	24.31	14.91	14.16	12.89	12.22	11.71	11.05	10.03	10.85	10.51	10.16	9.886	10.11	10.51	10.09	9.568	9.211	8.361	7.935	7.567	7.191	6.227	6.043	5.700	5.199	4.863	4.627	4.512	4.079	3.863	3.674	3.367	3.186	2.714	2.534	2.775	3.151	3.792	3.555	2.870	2.457	2.498	2.390	2.225	2.213	2.330	2.581	2.636	1.993	2.048	2.208	2.079	2.819	3.585	7.518	34.94	129.8	120.5	15.55	1.508	1.557
590.0	67.04	63.04	43.97	46.01	53.67	78.81	95.22	124.0	147.6	185.7	226.1	164.8	126.0	92.61	187.6	748.4	283.7	13.54	11.79	11.28	10.14	9.646	9.848	9.046	9.093	8.862	8.842	8.545	8.895	8.918	8.491	7.926	7.512	7.139	6.698	6.119	5.715	5.518	5.009	4.799	4.690	4.143	3.945	3.892	3.601	3.532	3.158	2.963	2.678	2.484	2.167	2.465	2.344	2.919	3.501	3.134	2.600	2.329	2.424	2.366	2.333	2.468	2.757	2.663	2.515	2.257	2.192	2.091	2.195	2.202	3.094	9.168	36.69	90.16	99.77	20.27	2.832
595.0	75.23	64.08	46.55	49.69	67.14	102.2	132.6	177.4	206.4	245.5	295.6	258.8	177.8	119.1	97.66	318.8	774.2	31.66	10.54	9.958	8.460	8.682	8.668	7.774	7.461	7.519	7.291	7.167	7.548	7.221	7.121	6.970	6.229	6.083	5.545	5.210	4.752	4.708	4.278	4.122	3.621	3.718	3.455	3.253	3.065	2.827	2.695	2.610	2.433	2.187	2.035	2.075	1.990	2.437	3.010	3.383	2.845	2.563	2.612	2.562	2.684	2.650	2.977	2.768	2.926	2.742	2.495	2.041	2.213	2.047	2.304	3.566	9.504	21.89	52.92	109.4	29.36
600.0	76.30	59.98	45.84	51.16	70.80	111.0	169.8	224.2	265.9	298.9	331.3	332.4	223.7	143.7	86.90	115.1	802.1	86.84	9.499	8.737	7.694	7.316	7.212	6.978	6.651	6.678	6.344	6.349	6.590	6.094	6.244	5.679	5.710	5.471	4.958	4.425	4.171	4.205	3.695	3.607	3.206	3.283	3.050	3.045	2.744	2.580	2.337	2.505	2.167	1.879	1.899	1.893	1.894	2.229	2.597	2.992	3.125	2.844	2.659	2.742	2.847	3.207	3.220	2.809	3.143	2.975	2.677	2.440	2.261	2.183	2.149	2.415	3.302	6.345	14.36	68.41	111.3
605.0	83.30	61.43	45.33	51.05	78.11	124.8	185.5	248.2	302.4	332.5	352.8	363.6	260.0	159.5	90.83	59.04	449.1	392.3	12.11	7.344	7.143	6.976	6.376	6.378	6.024	6.206	5.558	5.521	5.782	5.735	5.628	4.952	4.913	4.902	4.739	4.125	3.833	3.728	3.499	3.282	2.829	2.818	2.814	2.712	2.552	2.368	2.256	2.290	2.009	1.778	1.716	1.880	1.860	2.063	2.194	2.817	3.431	3.080	2.852	2.818	3.139	3.097	3.176	2.900	3.237	2.944	2.952	2.509	2.430	2.166	2.050	2.138	2.116	2.672	4.430	19.50	87.06
610.0	79.83	61.28	45.63	51.24	78.10	132.8	194.0	259.4	317.5	352.5	359.7	356.9	287.2	169.9	92.81	47.54	137.2	460.5	147.3	7.120	6.423	6.102	5.469	5.611	5.233	5.302	5.090	4.849	5.037	4.812	4.896	4.497	4.200	4.036	3.845	3.593	3.327	3.053	3.083	2.823	2.632	2.567	2.555	2.459	2.304	2.215	2.060	1.938	1.766	1.589	1.578	1.700	1.797	2.069	2.099	2.257	3.033	3.240	2.904	2.937	3.018	3.030	3.162	2.957	3.040	2.988	2.837	2.826	2.497	2.214	2.101	1.877	1.814	1.924	2.249	5.476	24.29
615.0	68.90	63.85	44.01	51.01	82.22	127.8	199.4	263.0	324.4	358.7	363.2	340.9	299.8	178.0	94.91	45.78	45.99	197.0	426.7	21.20	5.878	5.552	5.075	4.865	4.648	4.828	4.125	4.433	4.549	4.361	4.178	4.058	3.753	3.687	3.603	3.209	2.819	2.903	2.732	2.469	2.419	2.367	2.217	2.164	2.133	1.957	1.881	1.666	1.597	1.568	1.376	1.677	1.761	1.955	1.988	2.243	2.635	2.890	2.995	3.141	2.952	2.902	3.060	3.064	2.906	2.887	2.901	2.962	2.615	2.233	2.157	1.936	1.729	1.565	1.724	2.283	6.551
620.0	78.75	58.27	51.48	48.90	77.13	129.4	196.1	266.3	317.8	353.9	357.9	325.8	289.0	187.2	94.13	45.89	25.55	62.36	454.7	70.08	5.892	5.038	4.568	4.498	4.329	4.064	4.086	3.902	3.989	4.023	3.742	3.599	3.215	3.460	3.214	2.641	2.744	2.574	2.490	2.315	2.353	2.159	2.199	1.985	1.953	1.988	1.682	1.668	1.491	1.417	1.309	1.643	1.713	1.758	2.069	2.030	2.422	2.544	2.932	3.301	2.815	2.956	2.967	2.932	2.794	2.748	2.733	2.617	2.743	2.433	2.186	1.671	1.642	1.658	1.483	1.612	2.684
625.0	69.53	53.02	48.46	48.51	78.61	125.8	190.8	264.8	316.3	349.6	357.3	322.0	273.8	197.0	96.46	42.90	20.32	22.56	278.8	308.2	7.831	5.088	4.186	4.197	4.012	3.423	3.493	3.466	3.548	3.510	3.564	3.253	2.946	2.973	2.802	2.433	2.691	2.559	2.320	2.102	2.115	1.924	1.935	1.867	1.814	1.702	1.580	1.604	1.329	1.279	1.303	1.576	1.646	1.842	1.926	2.054	2.233	2.474	2.770	3.009	3.131	2.932	2.784	2.856	3.024	2.880	2.684	2.171	2.361	2.358	2.113	1.637	1.713	1.624	1.514	1.482	1.940
630.0	77.82	59.97	46.14	48.52	76.84	119.6	186.6	249.7	301.7	331.5	338.7	308.8	251.4	193.4	100.1	43.24	20.04	13.50	86.70	380.2	117.6	4.622	3.968	3.908	3.716	3.069	3.228	3.263	3.377	3.124	3.129	3.080	2.515	2.631	2.401	2.287	2.312	2.158	2.200	2.047	2.083	1.729	1.754	1.802	1.693	1.648	1.470	1.436	1.278	1.176	1.254	1.422	1.634	1.668	1.800	1.925	2.213	2.277	2.592	2.816	2.917	2.917	2.791	2.707	2.758	2.659	2.534	2.379	2.208	2.292	2.067	1.691	1.682	1.499	1.501	1.388	1.633
635.0	81.12	53.41	47.96	49.73	76.01	116.7	174.4	230.4	270.4	307.6	311.7	288.0	229.9	170.4	107.4	43.31	20.78	11.91	26.06	174.5	353.7	13.90	3.847	3.558	3.256	2.848	3.234	2.815	2.963	2.817	2.814	2.633	2.760	2.472	2.302	1.982	2.055	1.967	1.937	1.856	1.783	1.764	1.618	1.625	1.622	1.521	1.456	1.343	1.388	1.163	1.088	1.448	1.385	1.669	1.661	1.975	2.092	2.128	2.434	2.646	2.890	2.788	2.710	2.743	2.608	2.297	2.363	2.375	1.935	2.023	2.090	1.779	1.581	1.637	1.457	1.417	1.406
640.0	89.28	58.24	48.16	51.19	68.32	111.8	158.8	215.3	249.3	276.2	281.4	263.8	212.0	152.8	111.8	46.78	21.38	13.05	13.03	54.60	381.5	57.41	3.622	3.413	3.212	2.897	3.071	2.779	3.090	2.909	2.529	2.500	2.567	2.408	2.301	1.827	1.960	1.895	1.825	1.811	1.672	1.681	1.583	1.588	1.612	1.409	1.440	1.423	1.325	1.106	1.147	1.303	1.376	1.452	1.569	1.773	1.897	2.079	2.382	2.378	2.747	2.673	2.859	2.716	2.671	2.418	2.164	2.182	1.902	2.066	2.054	2.011	1.598	1.668	1.388	1.521	1.308
645.0	85.55	60.90	51.56	50.20	70.41	103.9	149.4	195.5	236.6	259.6	263.6	242.7	197.1	140.0	107.3	54.37	23.40	14.51	11.01	19.00	235.8	223.5	5.741	3.499	2.953	2.847	2.807	2.678	2.889	2.593	2.671	2.447	2.252	2.084	2.119	1.920	1.881	1.674	1.735	1.645	1.574	1.549	1.485	1.369	1.523	1.280	1.375	1.311	1.190	1.081	1.168	1.423	1.397	1.444	1.434	1.795	1.833	2.080	2.114	2.333	2.456	2.617	2.630	2.648	2.297	2.323	2.192	2.015	2.076	2.007	1.919	1.954	1.607	1.467	1.608	1.466	1.411
650.0	79.70	68.91	50.60	51.63	70.36	102.6	138.4	180.5	217.6	233.5	240.9	225.2	183.9	129.1	95.32	59.80	25.86	14.95	11.70	10.75	90.86	326.8	31.04	3.122	2.956	2.780	2.689	2.586	2.527	2.454	2.568	2.090	2.329	1.932	2.167	1.931	1.671	1.675	1.556	1.439	1.548	1.410	1.573	1.452	1.393	1.306	1.292	1.250	1.139	1.131	1.159	1.386	1.314	1.479	1.601	1.694	1.842	1.924	2.100	2.273	2.254	2.389	2.552	2.635	2.211	2.195	2.062	2.071	1.988	1.851	1.741	1.714	1.718	1.576	1.579	1.510	1.306
