Sample:	'1
File name:	武安市北安乐乡点位.FD3
Run date:	'11:04:50, 08/19/2024
Operator:	horiz
Comment:	'

Instrument
Model:	F-2700 FL Spectrophotometer
Serial number:	23B8-004
ROM Version:	4J14000 07

Instrument parameters
Measurement type:	3-D scan
Data mode:	Fluorescence
EX  Start WL:	220.0 nm
EX  End WL:	600.0 nm
EX Sampling interval:	5.0 nm
EM  Start WL:	230.0 nm
EM  End WL:	650.0 nm
EM Sampling interval:	5.0 nm
Scan speed:	12000 nm/min
EX Slit:	5.0 nm
EM Slit:	5.0 nm
PMT Voltage:	700 V
Response:	Auto 
Corrected spectra:	Off
Contour interval:	50.000

Peak integration
Integration method:	Rectangular
Sensitivity:	1
Threshold:	1.000

Peaks
No.	ApexEX/EM(nm)	Height(Data)
1	225.0/305.0	959.7
2	225.0/565.0	94.12
3	225.0/585.0	104.5
4	230.0/340.0	1245
5	235.0/510.0	263.9
6	240.0/380.0	958.4
7	240.0/525.0	227.3
8	245.0/535.0	191.3
9	250.0/550.0	161.9
10	255.0/280.0	573.2
11	255.0/560.0	141.6
12	260.0/575.0	122.1
13	265.0/385.0	913.4
14	265.0/585.0	120.7
15	270.0/300.0	1246
16	270.0/375.0	902.5
17	270.0/600.0	115.3
18	275.0/305.0	1420
19	275.0/610.0	104.5
20	280.0/310.0	1220
21	280.0/625.0	83.84
22	285.0/635.0	56.08
23	300.0/335.0	607.1
24	305.0/345.0	559.0
25	310.0/350.0	497.1
26	315.0/355.0	497.4
27	320.0/365.0	486.1
28	325.0/370.0	462.4
29	330.0/375.0	451.3
30	335.0/380.0	432.0
31	350.0/400.0	363.7
32	410.0/480.0	69.30
33	425.0/500.0	43.12
34	455.0/540.0	15.50
35	460.0/340.0	3.870
36	505.0/275.0	2.944
37	515.0/280.0	3.192
38	520.0/285.0	3.695
39	530.0/290.0	3.788
40	540.0/295.0	5.329
41	545.0/300.0	6.206
42	555.0/305.0	6.368
43	560.0/310.0	5.638
44	570.0/315.0	5.202
45	580.0/320.0	4.793
46	585.0/325.0	4.567

Wavelength data
No.	EX/EM(nm)	Height(Data)	

Data points
	220.0	225.0	230.0	235.0	240.0	245.0	250.0	255.0	260.0	265.0	270.0	275.0	280.0	285.0	290.0	295.0	300.0	305.0	310.0	315.0	320.0	325.0	330.0	335.0	340.0	345.0	350.0	355.0	360.0	365.0	370.0	375.0	380.0	385.0	390.0	395.0	400.0	405.0	410.0	415.0	420.0	425.0	430.0	435.0	440.0	445.0	450.0	455.0	460.0	465.0	470.0	475.0	480.0	485.0	490.0	495.0	500.0	505.0	510.0	515.0	520.0	525.0	530.0	535.0	540.0	545.0	550.0	555.0	560.0	565.0	570.0	575.0	580.0	585.0	590.0	595.0	600.0
230.0	86.18	1525	3168	768.6	36.39	10.55	8.179	7.827	5.525	5.391	5.317	4.381	3.921	3.483	2.956	2.464	2.151	1.985	1.971	1.652	1.573	1.408	1.276	1.244	1.215	1.095	1.088	1.044	1.003	0.936	1.029	0.849	0.823	0.773	0.802	0.769	0.744	0.687	0.674	0.659	0.699	0.781	0.751	0.713	0.578	0.628	1.979	7.790	12.63	8.324	2.911	0.785	0.489	0.458	0.428	0.469	0.464	0.479	0.459	0.451	0.453	0.451	0.429	0.467	0.465	0.431	0.428	0.441	0.445	0.451	0.474	0.432	0.445	0.432	0.440	0.454	0.461
235.0	117.8	442.5	2106	3266	627.0	56.52	9.283	7.524	6.005	5.812	5.400	4.589	3.705	3.541	2.885	2.689	2.181	2.103	1.753	1.783	1.577	1.580	1.424	1.319	1.304	1.066	1.138	1.127	0.862	1.200	0.972	0.938	0.839	0.753	0.724	0.716	0.791	0.741	0.597	0.753	0.641	0.742	0.702	0.819	0.690	0.606	0.874	2.308	5.186	9.053	12.81	12.69	5.532	1.272	0.460	0.568	0.558	0.469	0.531	0.480	0.410	0.461	0.472	0.416	0.445	0.487	0.445	0.526	0.448	0.461	0.449	0.445	0.464	0.415	0.516	0.471	0.454
240.0	147.8	192.2	657.0	2970	3582	502.6	29.00	9.474	7.436	6.470	5.816	4.544	4.377	3.983	2.968	2.637	2.099	2.093	1.839	1.751	1.469	1.487	1.416	1.370	1.128	1.154	1.077	1.131	0.938	1.088	0.938	0.926	0.789	0.854	0.727	0.750	0.761	0.810	0.617	0.686	0.622	0.685	0.679	0.725	0.891	0.929	0.809	0.986	1.574	2.942	7.126	16.18	19.72	13.00	4.639	0.955	0.443	0.436	0.447	0.487	0.435	0.416	0.429	0.415	0.507	0.478	0.426	0.453	0.443	0.425	0.461	0.445	0.426	0.423	0.394	0.491	0.495
245.0	124.3	211.2	214.0	1042	3952	3509	373.8	15.80	8.442	7.567	5.777	4.852	4.561	3.819	3.254	2.796	2.202	2.369	1.838	1.956	1.774	1.350	1.457	1.476	1.169	1.251	0.956	1.002	1.016	0.937	1.057	0.961	0.833	0.756	0.783	0.690	0.692	0.786	0.678	0.662	0.703	0.753	0.614	0.639	0.769	0.870	1.048	0.840	0.816	1.071	2.045	5.677	13.91	22.58	22.38	11.67	3.148	0.595	0.514	0.470	0.426	0.538	0.418	0.454	0.423	0.496	0.443	0.432	0.476	0.421	0.416	0.547	0.458	0.418	0.451	0.449	0.503
250.0	65.78	148.3	242.8	324.8	1278	3514	4306	1384	79.74	9.881	8.175	7.230	4.747	4.539	3.401	3.136	2.491	2.490	2.148	1.875	1.784	1.559	1.503	1.402	1.407	1.323	1.184	1.125	1.142	0.982	1.025	0.968	0.912	0.777	0.796	0.754	0.804	0.686	0.703	0.658	0.671	0.723	0.658	0.665	0.646	0.607	0.755	0.977	1.098	1.054	1.004	1.770	3.656	7.479	13.30	19.71	25.11	20.71	11.59	3.640	0.718	0.530	0.450	0.467	0.529	0.486	0.430	0.497	0.464	0.452	0.425	0.495	0.498	0.461	0.466	0.470	0.493
255.0	40.87	59.59	173.3	322.4	376.5	896.0	3358	6592	1932	82.05	10.83	8.482	6.297	5.443	4.236	3.458	2.888	2.312	2.226	1.936	1.937	1.625	1.498	1.551	1.302	1.377	1.239	1.227	1.319	1.037	1.091	0.963	0.823	0.861	0.816	0.743	0.714	0.640	0.745	0.660	0.695	0.717	0.751	0.742	0.649	0.571	0.656	0.713	0.727	1.039	1.432	1.632	1.453	2.060	3.409	5.029	9.278	20.37	36.42	31.54	18.16	3.565	0.645	0.497	0.551	0.545	0.483	0.454	0.529	0.492	0.573	0.431	0.485	0.469	0.448	0.474	0.465
260.0	46.13	33.62	73.68	260.5	325.6	257.3	1008	5270	7219	1488	42.02	10.56	7.827	6.064	4.823	3.627	2.925	2.495	2.607	2.153	1.992	1.680	1.691	1.434	1.491	1.426	1.429	1.347	1.324	1.188	0.971	1.040	1.027	0.977	0.827	0.746	0.695	0.684	0.733	0.743	0.720	0.600	0.732	0.772	0.644	0.676	0.620	0.621	0.591	0.614	1.024	1.742	1.859	1.391	1.301	1.624	2.518	5.676	15.05	32.95	46.59	29.31	14.42	2.029	0.520	0.551	0.593	0.596	0.464	0.549	0.543	0.427	0.478	0.501	0.407	0.498	0.523
265.0	48.61	33.97	39.06	119.4	357.9	245.2	271.5	1737	7249	7274	269.2	21.53	9.596	7.633	5.673	4.316	3.827	2.682	2.609	2.166	2.012	1.794	1.538	1.506	1.412	1.273	1.312	1.114	1.245	1.064	1.206	1.163	0.943	0.961	0.794	0.787	0.746	0.722	0.774	0.733	0.642	0.723	0.689	0.710	0.647	0.700	0.541	0.625	0.569	0.483	0.553	0.996	1.650	2.147	1.699	1.057	1.104	1.827	3.954	9.658	24.41	43.52	55.33	26.17	8.510	0.998	0.705	0.586	0.490	0.573	0.554	0.473	0.472	0.493	0.383	0.563	0.508
270.0	59.31	52.61	44.49	57.73	177.9	354.9	295.0	450.5	2243	6663	8510	1032	70.52	11.02	7.606	5.174	4.291	3.217	2.848	2.548	2.225	1.913	1.933	1.658	1.607	1.430	1.489	1.381	1.333	1.234	1.275	1.139	1.109	0.964	0.950	0.837	0.791	0.795	0.758	0.802	0.711	0.687	0.693	0.701	0.664	0.711	0.613	0.629	0.607	0.558	0.495	0.654	0.846	1.340	1.943	2.142	2.069	1.397	1.555	2.668	6.091	12.51	24.92	37.32	38.06	42.60	18.23	7.723	1.215	0.584	0.538	0.531	0.527	0.488	0.461	0.534	0.511
275.0	123.4	127.7	130.1	91.57	88.03	168.5	454.0	373.3	565.7	1647	5631	9999.9	1529	80.65	11.01	6.305	5.181	4.605	3.447	3.062	2.401	2.080	1.999	1.875	1.784	1.650	1.604	1.452	1.285	1.343	1.358	1.237	1.034	1.132	1.014	0.937	0.789	0.904	0.782	0.801	0.746	0.783	0.723	0.825	0.828	0.854	0.886	0.932	0.721	0.706	0.678	0.692	0.696	0.909	0.959	1.213	2.193	2.944	2.306	1.598	1.983	3.377	6.183	9.121	11.63	28.02	56.58	70.70	28.56	9.298	1.021	0.582	0.603	0.535	0.509	0.580	0.476
280.0	244.7	266.0	258.4	178.6	104.4	98.60	286.8	573.2	320.8	460.4	1616	8242	9999.9	1141	41.29	9.851	7.024	4.924	3.962	3.051	3.019	2.353	2.160	2.091	1.873	1.703	1.646	1.495	1.445	1.356	1.408	1.209	1.102	1.175	1.157	1.148	1.003	1.005	0.938	0.900	0.867	0.935	0.895	1.006	1.117	1.104	1.132	1.306	1.149	1.154	0.961	0.957	0.779	0.902	0.758	0.854	1.158	2.099	2.995	3.192	1.994	1.667	2.157	2.784	3.296	7.373	18.95	46.19	71.38	37.06	23.60	4.579	0.779	0.591	0.524	0.540	0.576
285.0	384.1	446.0	427.5	287.8	145.6	100.8	149.3	482.7	571.8	288.2	518.8	2565	9999.9	9841	784.8	20.30	8.949	6.525	4.691	3.607	3.432	2.792	2.506	2.169	1.679	1.971	1.702	1.455	1.430	1.531	1.386	1.316	1.151	1.356	1.151	1.276	1.243	1.209	1.161	1.077	1.068	1.079	1.014	1.092	1.350	1.485	1.475	1.519	1.616	1.442	1.272	1.322	1.020	0.927	0.865	0.811	0.870	1.173	1.885	2.848	3.695	2.788	1.628	1.588	1.637	2.626	5.337	12.20	27.79	52.66	79.64	34.73	17.28	2.147	0.612	0.563	0.605
290.0	556.4	671.9	647.6	436.6	227.7	138.1	143.4	275.2	607.7	693.9	490.0	886.3	3073	8597	9885	2736	48.58	9.442	6.384	4.631	3.866	3.198	2.773	2.396	2.087	2.008	1.681	1.653	1.520	1.603	1.386	1.380	1.400	1.439	1.389	1.400	1.365	1.415	1.217	1.221	1.271	1.281	1.232	1.369	1.693	1.878	1.943	2.235	2.253	1.792	1.717	1.705	1.292	1.131	0.989	0.910	0.957	1.052	1.352	1.634	2.468	3.273	3.788	3.385	2.499	2.146	2.737	4.236	7.631	14.34	29.16	41.13	59.17	51.09	41.18	12.84	2.900
295.0	698.1	829.1	842.5	530.1	294.8	185.6	179.0	253.0	420.7	819.8	1015	734.5	1083	2203	5683	9999.9	3570	54.14	9.201	6.230	4.436	4.107	3.325	2.910	2.337	2.362	1.950	1.793	1.879	1.766	1.350	1.465	1.331	1.315	1.535	1.632	1.650	1.524	1.432	1.327	1.398	1.385	1.333	1.587	1.987	2.028	2.395	2.752	2.700	2.099	1.966	1.844	1.448	1.298	1.179	1.164	1.349	1.284	1.441	1.467	1.789	2.233	2.766	4.065	5.329	4.278	3.093	3.298	3.624	5.247	8.030	10.43	15.13	23.64	56.11	84.95	36.87
300.0	733.3	936.0	898.0	575.3	329.0	219.3	214.7	282.0	405.9	674.8	1246	1032	750.9	772.5	1565	7580	9999.9	720.1	30.56	8.749	5.968	4.504	4.004	2.988	2.862	2.407	2.005	1.939	1.942	1.805	1.546	1.497	1.331	1.540	1.724	1.605	1.651	1.551	1.462	1.498	1.492	1.519	1.568	1.695	2.101	2.468	2.417	2.967	2.757	2.313	2.235	2.021	1.530	1.552	1.296	1.221	1.343	1.364	1.688	1.710	1.918	2.047	2.381	3.168	4.578	6.206	5.546	3.842	3.190	3.250	3.639	3.849	4.708	6.440	16.02	40.78	70.83
305.0	735.3	959.7	887.5	594.8	348.7	242.3	246.5	328.0	448.0	640.6	1048	1420	853.1	514.0	515.1	2184	9630	6305	529.7	15.23	8.023	5.866	4.210	3.484	3.020	2.641	2.419	2.445	1.985	1.650	1.605	1.592	1.434	1.654	1.642	1.760	1.734	1.682	1.412	1.316	1.541	1.536	1.667	1.714	1.937	2.581	2.507	2.906	2.806	2.322	2.124	2.081	1.695	1.578	1.389	1.375	1.489	1.509	1.806	2.137	2.409	2.457	2.574	2.961	3.643	4.981	6.241	6.368	4.596	3.524	2.956	2.341	2.380	2.600	4.597	10.26	22.54
310.0	710.1	904.4	855.1	575.2	351.5	268.6	284.6	361.5	485.3	655.0	897.4	1204	1220	638.6	327.4	600.0	2675	6971	7981	2052	34.20	8.417	5.670	4.376	3.592	3.099	2.598	2.469	2.141	1.970	1.855	1.709	1.491	1.593	1.662	1.732	1.670	1.708	1.529	1.528	1.447	1.622	1.646	1.672	1.958	2.351	2.487	2.808	2.680	2.420	2.159	2.095	1.734	1.661	1.500	1.375	1.641	1.645	1.784	2.074	2.331	2.550	2.779	3.403	3.666	3.990	4.580	5.336	5.638	5.317	4.313	2.661	2.109	1.975	2.096	3.240	5.915
315.0	668.5	848.7	790.8	551.8	355.5	298.4	309.8	392.4	504.3	660.5	858.3	983.6	1070	997.4	418.9	283.0	693.7	1671	4840	9999.9	2793	37.38	8.435	5.857	4.811	3.662	2.994	2.878	2.554	2.082	1.944	1.869	1.721	1.614	1.532	1.767	1.748	1.667	1.494	1.589	1.588	1.475	1.670	1.702	1.891	2.237	2.519	2.619	2.689	2.161	1.920	2.053	1.778	1.790	1.636	1.463	1.679	1.735	1.925	2.218	2.238	2.650	2.819	3.199	3.869	3.902	4.044	4.353	4.517	4.454	5.202	4.934	3.297	2.197	1.872	1.873	2.248
320.0	692.4	897.9	831.1	557.7	374.1	312.7	330.6	415.3	530.8	676.3	835.1	922.1	911.4	968.3	684.1	280.0	284.1	464.1	1282	6850	9999.9	524.9	21.56	7.749	5.479	4.095	3.416	2.942	2.667	2.350	1.990	1.822	1.960	1.850	1.578	1.763	1.703	1.610	1.568	1.464	1.647	1.427	1.652	1.799	1.939	2.252	2.416	2.749	2.662	2.387	1.964	2.119	1.730	1.705	1.633	1.607	1.799	2.017	2.027	2.201	2.349	2.833	2.781	3.222	3.663	3.848	3.883	3.757	3.946	3.775	3.724	4.478	4.793	3.915	2.292	1.775	1.717
325.0	743.6	951.7	951.2	661.0	438.4	349.3	357.9	442.8	547.2	697.4	838.4	917.9	871.0	789.2	833.9	446.5	231.1	218.2	367.1	1950	8660	8211	395.0	13.43	7.121	4.949	4.224	3.362	2.958	2.427	2.154	2.027	2.072	1.922	1.659	1.653	1.598	1.651	1.560	1.576	1.420	1.606	1.745	1.744	1.930	2.503	2.500	3.164	3.074	2.585	2.307	2.160	1.985	1.736	1.856	1.668	1.919	2.088	2.133	2.315	2.607	2.710	2.849	3.180	3.574	3.814	3.936	3.708	4.059	3.668	3.307	3.517	4.320	4.567	3.864	2.455	1.876
330.0	773.1	1021	1091	825.3	568.5	430.1	410.8	466.6	569.8	703.2	838.1	915.2	866.6	732.7	671.5	646.5	390.6	209.3	192.2	515.3	2411	6675	6648	1640	27.58	7.561	5.536	4.049	3.357	2.848	2.554	2.264	2.002	1.975	1.777	1.647	1.809	1.606	1.505	1.492	1.482	1.688	1.701	1.861	2.171	2.528	2.749	3.310	3.356	3.030	2.817	2.886	2.471	2.202	2.041	1.965	2.258	2.155	2.216	2.344	2.659	2.799	3.080	3.208	3.579	3.829	3.792	3.785	4.084	3.834	3.612	3.515	3.444	3.510	3.583	3.765	3.306
335.0	778.5	1098	1200	956.8	679.7	533.0	472.7	500.3	593.9	721.5	835.8	907.8	866.1	729.8	608.0	547.0	607.1	342.1	189.3	221.2	608.7	1591	4464	9822	2316	31.08	7.480	5.425	4.016	3.367	3.233	2.624	2.415	2.083	1.948	1.641	1.753	1.511	1.543	1.653	1.626	1.794	1.836	2.036	2.237	2.644	2.724	3.514	3.600	3.295	3.107	3.385	2.823	2.779	2.522	2.242	2.572	2.397	2.318	2.756	2.767	2.927	3.280	3.259	3.347	3.450	3.623	4.039	4.019	4.189	3.640	3.707	3.269	3.298	3.052	2.932	3.558
340.0	769.3	1090	1245	1016	763.1	594.4	516.2	529.9	617.6	725.2	832.9	891.8	859.3	750.0	606.8	497.2	552.6	525.5	252.2	179.4	230.7	422.2	1200	6756	9049	432.4	18.18	7.301	5.075	3.919	3.437	2.624	2.292	2.299	2.047	1.757	1.847	1.710	1.514	1.579	1.547	1.810	1.890	2.111	2.243	2.647	3.070	3.637	3.870	3.528	3.217	3.396	3.132	3.034	2.544	2.408	2.601	2.519	2.427	2.640	2.541	2.997	3.014	3.279	3.493	3.650	3.787	3.762	3.944	3.973	3.685	3.416	3.451	2.980	2.953	2.827	2.868
345.0	775.1	1072	1199	1055	821.4	644.7	564.2	566.6	631.9	718.8	809.8	865.9	843.3	749.0	627.7	502.0	461.8	559.0	396.0	206.1	168.8	186.3	334.5	1949	8130	7144	336.7	10.72	6.085	4.629	3.709	3.039	2.577	2.215	2.144	1.832	1.839	1.629	1.615	1.587	1.501	1.753	1.762	1.765	2.209	2.668	3.026	3.438	3.830	3.497	3.280	3.588	3.410	3.182	2.801	2.686	2.700	2.526	2.706	2.839	2.695	3.186	3.233	3.210	3.647	3.662	3.625	3.809	3.776	3.951	3.664	3.429	3.482	3.252	3.045	3.083	2.960
350.0	737.5	1012	1131	1060	878.5	711.7	626.0	618.3	669.2	739.6	802.6	846.5	829.3	751.1	645.5	533.1	462.6	460.7	497.1	360.7	210.0	168.5	170.0	505.0	2347	6181	5720	1374	23.59	6.224	4.885	3.455	2.672	2.484	2.198	2.035	1.853	1.682	1.678	1.658	1.495	1.546	1.716	1.798	2.121	2.540	2.700	3.278	3.544	3.427	3.304	3.780	3.591	3.247	3.128	2.791	2.922	2.854	2.801	2.970	3.116	3.285	3.500	3.378	3.630	3.643	3.726	3.820	3.697	3.754	3.654	3.437	3.492	3.335	3.226	3.101	2.976
355.0	700.8	941.1	1097	1043	902.9	784.9	701.3	695.6	736.8	785.7	823.3	837.8	809.3	759.0	668.9	576.8	500.6	448.9	431.3	497.4	349.7	212.5	170.9	211.5	589.8	1482	4226	8362	439.6	24.41	6.511	4.388	3.307	2.812	2.124	1.960	1.883	1.743	1.697	1.506	1.510	1.810	1.708	1.640	2.124	2.455	2.674	3.299	3.395	3.094	3.272	3.894	3.660	3.322	3.401	3.055	3.183	3.064	3.119	3.052	3.291	3.254	3.796	3.628	3.741	3.521	3.775	3.906	3.559	3.740	3.702	3.573	3.526	3.385	3.251	3.308	2.843
360.0	662.7	894.3	1065	1014	919.1	829.8	761.5	761.3	796.3	830.7	844.0	841.0	814.4	756.3	685.1	604.4	538.6	474.9	430.8	465.0	471.8	283.3	197.2	166.2	219.9	390.5	1167	6340	7406	385.8	13.76	5.654	4.106	3.404	2.423	2.158	1.924	1.758	1.666	1.594	1.405	1.731	1.841	1.728	2.083	2.451	2.656	3.010	3.127	3.051	3.288	3.870	3.685	3.512	3.451	3.343	3.367	3.352	3.202	3.440	3.475	3.629	3.559	3.787	3.770	3.730	3.617	3.704	3.574	3.745	3.906	3.653	3.428	3.590	3.277	3.348	3.105
365.0	604.1	880.9	1020	1019	929.6	877.4	814.5	794.1	831.4	855.1	871.2	846.4	821.1	771.4	700.9	623.0	570.9	507.0	450.4	429.7	486.1	406.6	244.6	180.3	157.4	163.9	316.7	1919	7624	3495	55.36	8.411	5.114	3.679	2.913	2.251	2.224	1.879	1.737	1.485	1.499	1.639	1.732	1.809	1.972	2.236	2.683	2.934	3.264	3.063	3.096	3.780	3.662	3.601	3.499	3.649	3.312	3.655	3.510	3.512	3.827	3.582	3.803	4.049	3.709	3.787	3.449	3.701	3.543	3.884	3.502	3.764	3.511	3.500	3.770	3.464	3.356
370.0	602.8	832.6	970.3	984.9	941.4	904.4	853.5	845.9	878.8	888.1	894.3	863.6	822.2	773.5	716.9	644.9	593.1	542.2	488.4	448.9	438.3	462.4	371.6	235.6	174.9	141.4	146.9	485.0	2279	5415	5412	1201	19.38	5.260	3.832	2.849	2.378	2.018	2.001	1.696	1.590	1.744	1.697	1.851	1.933	2.252	2.478	2.801	3.055	3.000	3.013	3.811	3.513	3.718	3.558	3.669	3.597	3.524	3.702	3.693	4.010	3.603	3.813	3.857	3.939	3.789	3.857	3.631	3.601	3.977	3.682	3.745	3.603	3.777	3.631	3.646	3.531
375.0	591.2	769.4	929.8	964.6	939.8	916.4	882.5	871.3	895.9	899.3	902.5	879.3	819.2	774.3	716.3	655.8	614.3	571.8	524.9	483.4	441.6	422.5	451.3	352.0	221.5	166.5	136.2	181.7	559.2	1325	4362	7663	377.3	20.40	5.294	3.606	2.806	2.322	1.922	1.856	1.869	1.700	1.630	1.898	2.001	2.221	2.293	2.677	2.967	3.052	3.047	3.615	3.491	3.900	3.660	3.622	3.812	3.672	3.810	3.719	3.989	3.942	3.698	3.915	4.059	3.945	3.783	3.652	3.783	3.812	3.702	3.612	3.634	3.523	3.520	3.242	3.479
380.0	578.1	770.2	905.4	946.6	958.4	920.7	899.0	898.6	905.0	905.1	899.0	874.1	823.4	761.7	702.6	652.3	616.9	580.6	537.5	503.1	457.6	418.9	424.6	432.0	290.0	197.1	155.5	134.2	192.4	343.5	1219	6081	6454	318.0	10.57	4.663	3.536	2.814	2.259	2.045	1.799	1.976	1.774	1.890	1.961	2.158	2.335	2.562	2.810	2.840	2.751	3.617	3.669	3.931	3.540	3.753	3.773	3.959	3.726	3.762	4.051	4.068	3.829	4.042	4.099	4.082	3.956	3.768	3.970	3.669	3.625	3.655	3.644	3.566	3.421	3.496	3.555
385.0	549.2	735.8	874.2	933.8	947.4	906.2	909.6	892.6	898.5	913.4	901.7	866.0	815.4	755.5	694.2	652.5	612.6	581.1	555.8	513.4	473.0	429.1	405.4	429.3	379.3	240.5	179.1	141.8	127.3	135.5	314.4	1871	6765	2923	44.50	7.071	4.468	3.298	2.534	2.117	1.977	2.068	1.785	1.826	1.985	2.238	2.274	2.836	2.817	2.760	2.744	3.711	3.590	3.799	3.748	3.602	3.895	3.853	3.849	3.625	3.831	4.057	3.983	4.002	3.867	3.951	3.748	3.486	3.727	4.147	3.890	3.476	3.589	3.660	3.537	3.377	3.722
390.0	529.4	704.1	831.4	881.9	924.2	919.5	892.1	878.8	875.9	882.7	875.6	842.1	794.2	739.1	683.7	644.3	607.0	576.5	548.6	517.6	485.8	441.1	409.4	390.0	399.6	336.0	229.2	167.9	134.3	109.1	125.5	458.2	2016	4467	4292	952.7	16.36	4.538	3.408	2.558	2.292	2.115	2.092	1.825	2.068	2.121	2.476	2.662	2.736	2.644	2.867	3.404	3.382	3.662	3.743	3.597	3.863	3.849	3.703	3.799	3.890	4.001	3.923	3.873	3.919	3.705	3.767	3.554	3.614	3.706	3.666	3.505	3.517	3.526	3.286	3.527	3.595
395.0	508.7	690.5	795.5	855.1	888.3	898.8	887.7	867.6	847.3	857.8	849.7	798.8	761.3	712.9	665.3	620.4	594.2	569.5	541.1	519.7	487.9	454.0	419.7	388.0	367.2	374.6	315.8	210.7	160.6	124.2	102.9	150.7	484.3	1091	3498	5999	316.4	17.40	4.514	3.393	2.772	2.399	2.097	2.097	2.078	2.306	2.341	2.531	2.720	2.621	2.692	3.479	3.462	3.605	3.688	3.776	3.841	3.864	3.703	3.669	3.940	3.965	3.880	3.790	3.832	3.618	3.805	3.376	3.576	3.536	3.644	3.323	3.370	3.344	3.519	3.500	3.377
400.0	477.8	663.8	765.1	842.8	859.2	859.0	859.2	854.3	835.2	833.9	815.4	785.8	739.1	690.8	645.4	602.5	582.7	553.0	531.0	509.2	484.3	456.1	425.4	397.6	362.1	351.0	363.7	265.4	184.5	142.5	109.2	96.25	151.4	274.7	981.4	4745	5145	273.8	9.362	4.175	2.923	2.407	2.353	2.280	2.205	2.206	2.281	2.303	2.742	2.498	2.654	3.226	3.563	3.744	3.422	3.277	3.823	3.798	3.695	3.824	3.568	3.775	3.803	3.802	3.683	3.378	3.636	3.374	3.518	3.244	3.401	3.199	3.623	3.407	3.381	3.304	3.320
405.0	505.6	627.2	734.6	791.8	853.5	854.6	847.0	841.5	817.9	800.9	799.1	755.0	719.5	674.3	630.1	590.3	559.0	545.0	520.9	501.8	478.5	454.5	423.9	396.4	365.4	337.7	350.4	324.3	219.2	164.7	125.2	94.85	86.14	97.58	246.1	1446	5285	2521	39.93	5.804	3.593	2.709	2.686	2.183	2.229	2.275	2.326	2.596	2.448	2.453	2.725	3.081	3.349	3.474	3.454	3.261	3.715	3.767	3.632	3.872	3.641	3.549	3.804	3.670	3.484	3.310	3.515	3.480	3.319	3.174	3.075	3.263	3.287	3.383	3.310	2.983	3.367
410.0	479.0	612.2	708.0	765.2	815.8	823.5	815.9	799.7	792.3	769.6	753.5	720.9	688.1	646.2	604.3	561.7	534.1	518.9	500.3	483.3	464.2	444.1	423.6	398.6	371.5	341.8	320.4	328.9	286.9	202.2	145.8	109.4	85.22	68.05	87.22	347.9	1559	3597	3583	880.4	14.32	3.625	2.974	2.526	2.426	2.287	2.345	2.581	2.628	2.396	2.713	2.985	3.197	3.315	3.335	3.356	3.704	3.507	3.578	3.577	3.540	3.565	3.485	3.356	3.330	3.307	3.371	3.160	3.309	3.097	3.090	3.063	3.071	3.194	3.099	3.081	3.130
415.0	441.7	601.0	693.1	731.1	768.6	785.1	778.4	774.9	763.3	735.9	726.0	689.7	660.2	611.7	569.3	529.8	508.3	492.8	473.4	457.5	448.9	430.9	416.3	397.7	371.9	340.4	313.0	298.0	304.1	262.0	174.1	126.0	96.15	71.11	59.44	106.3	367.9	873.8	2784	4866	288.1	15.65	3.915	3.007	2.572	2.495	2.299	2.579	2.467	2.492	2.549	3.161	3.026	2.992	3.050	3.228	3.360	3.426	3.302	3.445	3.410	3.466	3.229	3.228	3.241	3.310	3.186	2.874	3.022	3.051	2.998	2.866	3.339	2.869	3.034	3.075	3.123
420.0	459.4	573.2	662.5	714.5	748.2	758.9	759.6	767.3	730.8	702.7	694.2	666.4	627.0	585.7	542.9	503.4	477.4	464.1	453.9	442.9	427.7	416.9	403.7	388.8	366.0	340.5	311.7	286.7	279.6	286.4	210.5	139.8	102.5	78.51	59.55	56.93	105.6	212.3	769.6	3722	4237	255.1	8.227	3.426	2.716	2.695	2.485	2.564	2.342	2.334	2.510	2.972	3.041	2.965	3.212	3.133	3.247	3.400	3.512	3.503	3.394	3.566	3.394	3.337	3.062	3.096	3.183	2.972	2.894	3.224	3.041	2.964	3.016	2.774	2.808	2.761	3.053
425.0	416.5	543.5	639.5	688.7	728.8	731.9	739.8	723.3	707.3	688.3	674.9	643.1	598.5	559.1	522.0	483.1	459.0	445.2	435.8	423.5	409.8	402.7	391.8	379.3	359.2	337.9	311.9	286.6	265.8	273.7	247.2	162.2	114.0	86.85	64.59	51.24	51.97	67.58	188.0	1117	4164	2358	38.11	5.124	3.096	2.860	2.673	2.532	2.546	2.217	2.377	2.799	2.905	2.922	3.071	3.153	3.307	3.366	3.430	3.406	3.108	3.372	3.359	3.334	3.129	3.172	2.933	2.948	2.845	3.008	2.839	2.888	2.880	2.818	2.773	2.597	2.831
430.0	472.4	515.7	605.9	655.4	682.5	688.3	709.6	698.9	686.4	668.5	646.0	615.4	576.1	533.5	496.7	457.1	434.1	422.5	410.0	398.4	390.4	383.7	375.3	365.0	349.1	331.1	308.6	288.8	265.8	247.4	243.4	204.4	137.5	98.64	74.81	56.91	45.90	40.36	60.90	264.9	1194	2862	3095	844.3	14.53	3.849	3.042	2.787	2.650	2.312	2.513	2.863	2.964	2.974	3.038	2.892	3.107	3.150	3.295	3.234	3.168	3.353	3.315	3.154	3.011	2.889	2.883	2.976	2.867	2.913	2.645	2.599	2.714	2.642	2.680	2.684	2.609
435.0	871.5	470.6	569.7	619.7	652.3	655.9	681.8	674.0	665.2	643.4	631.8	589.0	544.1	506.9	468.5	432.4	410.0	394.7	385.4	378.4	368.6	363.3	357.6	350.1	335.0	320.0	302.1	284.5	263.6	241.7	221.9	211.4	179.3	116.4	83.90	65.63	50.32	40.59	36.29	77.20	279.5	681.3	2162	4356	1264	18.23	3.889	3.185	2.808	2.499	2.305	2.839	2.809	2.867	3.109	2.841	3.093	3.071	3.410	3.132	3.313	3.103	3.248	2.862	2.937	2.859	2.855	2.944	2.585	2.631	2.482	2.470	2.439	2.328	2.628	2.523	2.492
440.0	1386	558.7	545.1	603.4	607.8	642.6	654.6	663.1	655.5	638.3	611.1	573.5	527.4	489.3	453.2	409.3	387.3	374.7	364.4	355.8	352.0	344.0	343.4	336.3	325.4	312.3	296.5	281.1	264.0	240.2	214.9	196.2	191.9	139.5	93.83	72.44	56.38	43.94	34.39	37.69	77.78	165.2	580.1	3080	4261	254.3	11.21	3.710	3.240	2.588	2.510	2.867	3.006	2.754	3.058	2.860	3.128	2.961	3.226	3.094	2.941	3.081	2.972	2.976	2.846	2.703	2.644	2.780	2.587	2.499	2.460	2.431	2.319	2.386	2.484	2.267	2.562
445.0	1616	926.3	526.1	569.1	588.8	609.9	619.6	635.2	631.0	622.1	587.3	550.6	510.5	467.4	434.2	397.9	370.9	358.0	349.8	339.1	332.0	329.5	327.3	322.9	313.8	303.0	286.6	277.2	260.7	236.4	212.6	185.6	180.2	162.7	111.0	77.97	62.32	47.93	37.43	30.82	35.19	51.15	141.7	883.9	3644	3536	193.7	6.770	3.832	2.729	2.564	2.891	2.803	2.772	2.842	2.860	3.071	2.845	3.157	2.820	3.128	2.995	3.027	2.963	2.684	2.603	2.595	2.606	2.521	2.424	2.227	2.482	2.182	2.239	2.169	2.434	2.485
450.0	1083	1784	675.4	526.8	552.4	576.7	593.7	595.7	599.6	586.0	552.2	527.3	477.9	435.2	401.5	366.8	345.5	332.3	322.1	314.8	309.2	306.7	302.3	298.6	292.9	283.8	272.2	264.0	250.8	231.9	207.5	181.1	160.2	154.8	132.4	92.45	67.51	53.67	42.16	33.39	28.63	27.74	45.34	208.8	999.7	2739	2800	853.0	14.05	3.531	2.943	3.056	3.012	2.882	2.659	2.762	2.973	2.915	2.890	2.899	2.931	2.820	2.781	2.912	2.593	2.549	2.546	2.432	2.537	2.271	2.227	2.420	2.178	2.250	2.257	2.444	2.304
455.0	510.2	2011	1345	520.8	514.4	523.9	552.2	556.0	564.1	545.3	516.9	492.8	451.6	407.0	369.9	337.3	318.0	303.3	294.5	283.9	281.6	278.6	275.4	273.7	269.2	262.0	255.2	246.1	235.3	220.0	198.0	175.5	150.6	134.2	130.8	113.6	78.02	57.56	45.81	37.73	30.48	25.62	24.92	58.69	233.2	634.9	1562	3733	1223	17.42	3.571	3.256	3.129	2.630	2.744	2.535	2.741	2.934	2.709	2.907	2.592	2.770	2.738	2.803	2.462	2.550	2.523	2.274	2.323	2.096	2.367	2.164	2.213	2.311	2.158	2.054	2.170
460.0	336.4	1331	2304	681.8	485.3	493.5	517.4	521.2	523.4	506.6	490.3	461.7	420.0	382.4	343.9	317.9	297.0	279.5	272.0	262.6	257.0	256.1	255.5	254.6	249.3	244.7	238.4	229.4	222.7	210.2	190.1	169.0	145.8	125.2	116.6	117.3	91.13	62.10	48.14	40.06	32.73	26.28	22.36	26.54	62.70	151.6	390.9	2169	3557	200.9	13.31	3.768	3.196	2.865	2.846	2.523	2.570	2.797	2.853	2.527	2.444	2.686	2.452	2.615	2.337	2.285	2.439	2.268	2.172	2.106	2.058	2.072	2.005	1.976	2.134	1.814	1.992
465.0	282.0	684.1	2586	1024	455.3	459.5	482.3	496.4	492.6	482.3	470.9	434.4	398.0	358.9	325.9	293.3	275.3	260.6	251.9	242.8	240.1	237.1	235.1	235.0	233.5	228.2	223.1	217.0	207.2	199.5	183.9	160.5	139.9	121.4	106.9	106.0	99.43	69.90	51.99	41.59	34.51	27.15	23.30	20.32	25.92	43.83	95.66	569.3	2562	2935	186.3	10.15	3.613	3.194	2.877	2.476	2.632	2.612	2.782	2.560	2.458	2.354	2.313	2.538	2.363	2.431	2.241	2.071	2.097	1.968	2.115	2.099	1.868	1.921	1.942	1.947	1.849
470.0	273.5	398.9	1520	2400	647.0	418.3	436.6	449.1	447.0	441.9	427.1	397.2	361.9	328.3	293.7	265.2	248.5	235.6	226.5	219.6	213.9	211.8	210.5	211.0	207.9	204.0	199.9	196.0	190.9	183.6	170.3	151.4	132.8	114.4	100.5	91.44	90.20	81.02	58.27	43.86	35.18	28.92	24.53	20.40	18.73	20.66	29.99	134.9	660.1	1826	2389	931.7	16.80	3.583	2.945	2.835	2.739	2.436	2.534	2.375	2.491	2.316	2.385	2.274	2.245	2.167	2.151	2.056	2.039	1.932	1.896	2.086	1.885	1.820	1.716	1.743	1.757
475.0	256.9	312.7	634.5	2360	1724	407.0	391.8	406.5	398.1	410.1	385.9	364.3	327.9	291.4	263.0	238.7	221.9	211.1	200.5	194.3	192.1	187.6	187.9	187.0	185.6	182.8	176.2	175.0	173.2	166.9	156.2	138.8	122.1	106.8	94.37	83.35	74.63	75.62	67.42	47.84	36.77	30.00	25.54	20.71	18.89	16.30	16.03	37.84	153.8	415.6	920.1	2484	1280	23.52	3.281	2.708	2.669	2.543	2.243	2.165	2.356	2.325	2.167	2.189	2.130	1.964	1.852	1.911	2.073	1.726	1.745	1.816	1.714	1.714	1.692	1.470	1.579
480.0	251.1	277.4	368.9	1416	2695	594.5	364.0	382.8	377.3	372.9	361.0	340.0	304.9	274.9	245.5	220.3	203.4	193.1	184.1	178.6	175.4	171.0	171.7	171.6	169.2	166.9	163.6	161.5	161.4	153.2	146.3	132.0	116.5	102.0	92.13	79.50	69.46	66.08	69.30	55.11	38.63	30.84	26.11	22.18	19.25	15.65	13.83	16.64	41.12	98.37	218.8	1141	2671	1060	17.78	3.115	2.778	2.510	2.455	2.238	2.218	2.097	2.134	2.014	1.963	1.872	1.748	1.784	1.819	1.672	1.697	1.616	1.514	1.677	1.556	1.427	1.533
485.0	227.4	303.5	296.5	688.7	2744	1308	350.7	352.1	353.6	348.9	340.5	317.8	289.0	257.6	230.9	206.1	189.0	182.6	170.0	166.7	161.9	159.2	158.4	158.3	158.8	154.5	152.6	150.8	150.2	142.6	137.2	123.4	111.2	98.43	88.27	76.76	67.37	60.55	63.70	59.43	43.84	31.41	27.26	22.95	19.04	16.56	13.55	12.48	16.40	28.05	54.30	283.3	1557	2590	230.4	12.58	3.015	2.787	2.408	2.142	2.210	2.065	1.935	1.986	1.911	1.866	1.669	1.681	1.722	1.630	1.641	1.590	1.421	1.604	1.489	1.465	1.443
490.0	186.5	299.5	284.0	363.4	1527	2474	629.0	324.7	327.5	327.1	318.5	292.8	267.2	238.4	212.3	188.8	174.3	166.5	156.8	151.0	147.5	144.5	142.8	142.7	142.5	140.4	138.8	138.0	137.5	132.7	126.9	115.8	104.1	93.99	84.00	73.09	64.53	57.26	53.59	55.03	50.03	36.58	28.28	23.79	20.41	17.23	15.04	12.38	11.59	12.53	17.56	68.32	381.1	1243	1831	994.2	20.22	3.610	2.552	2.386	2.266	2.102	1.896	1.956	1.867	1.771	1.650	1.717	1.587	1.642	1.556	1.503	1.378	1.528	1.552	1.437	1.346
495.0	164.0	258.5	289.5	277.5	590.3	2285	1689	323.5	294.0	296.8	286.7	269.1	248.2	213.7	191.8	170.4	159.2	146.4	140.8	136.3	132.9	129.7	126.8	126.3	127.5	125.8	123.8	124.1	121.7	120.6	115.0	105.5	95.77	86.37	76.57	68.71	60.83	53.55	49.19	46.69	47.17	42.84	31.06	24.47	21.27	17.80	15.38	13.35	10.84	10.04	9.802	20.25	89.64	282.4	669.3	2206	1595	29.43	3.183	2.698	2.230	2.181	2.075	1.907	1.640	1.627	1.564	1.534	1.585	1.475	1.491	1.490	1.419	1.329	1.425	1.312	1.307
500.0	143.0	204.2	284.5	248.7	325.0	1349	2663	452.6	270.3	278.5	263.0	244.9	227.7	197.9	177.6	158.8	144.2	134.5	128.1	123.7	120.3	119.4	117.1	115.3	115.6	114.0	113.0	114.4	111.0	111.6	105.5	98.13	88.15	80.58	72.41	64.08	58.00	52.15	46.32	42.40	40.24	43.12	35.60	25.18	21.15	17.92	15.61	13.31	11.00	9.431	8.087	9.336	24.48	67.49	157.1	898.6	2578	1237	23.16	2.749	2.392	2.071	1.918	1.791	1.661	1.494	1.608	1.574	1.500	1.490	1.375	1.179	1.221	1.159	1.290	1.218	1.330
505.0	143.4	178.1	271.6	241.9	244.7	619.7	2748	1123	257.9	252.9	242.0	224.6	207.9	182.0	164.7	148.5	131.7	125.1	118.4	112.3	110.3	106.3	106.9	105.9	106.4	103.1	102.7	103.4	102.7	102.4	96.76	88.59	84.16	73.97	68.41	60.94	54.09	48.31	43.34	39.45	36.95	38.58	38.43	28.43	21.43	17.81	15.95	13.08	11.36	9.905	8.193	7.503	10.34	19.29	38.76	215.3	1260	2499	260.6	15.30	2.480	2.173	1.873	1.959	1.656	1.535	1.646	1.430	1.288	1.368	1.264	1.138	1.261	1.209	1.154	1.239	1.202
510.0	121.4	157.7	226.1	263.9	212.7	306.1	1521	2366	462.9	226.4	218.7	205.6	185.4	163.8	145.2	130.2	117.9	112.3	106.3	99.92	97.47	93.86	94.14	92.85	93.27	92.90	90.37	91.94	90.81	89.88	86.45	80.05	73.47	66.25	61.28	55.37	50.29	44.96	40.31	36.57	33.14	31.41	34.07	31.75	23.59	18.14	15.44	13.18	11.43	9.805	8.556	7.413	7.042	8.499	12.76	51.68	301.4	1075	1681	955.0	20.47	2.810	1.990	1.938	1.598	1.484	1.510	1.343	1.332	1.199	1.182	1.105	1.185	1.145	1.013	1.140	1.164
515.0	122.3	133.2	165.7	259.7	210.2	200.6	526.6	2347	1435	217.4	196.8	181.1	165.0	142.8	128.1	113.3	103.4	99.86	92.28	88.81	86.03	84.12	82.77	80.81	81.15	81.09	77.40	77.81	80.19	77.45	76.07	72.11	64.07	58.85	54.01	49.64	45.05	40.25	37.10	33.31	29.67	27.20	27.50	29.36	26.91	19.24	15.09	12.82	10.67	9.903	8.335	7.633	6.300	6.329	6.726	15.09	70.53	243.4	538.6	1703	1290	29.17	2.421	1.841	1.628	1.528	1.409	1.382	1.171	1.339	1.113	1.060	1.170	1.152	1.032	1.170	1.045
520.0	112.1	127.0	139.9	210.0	224.5	176.0	249.6	1399	2510	323.8	177.5	167.5	150.0	131.6	113.8	102.3	93.91	88.35	81.72	80.31	77.62	75.89	73.65	73.26	72.49	71.55	71.05	69.18	71.95	71.68	69.04	63.65	58.90	55.06	50.16	44.39	41.47	37.10	34.12	30.60	27.89	25.28	23.57	24.50	26.88	21.33	15.57	12.40	10.89	9.481	8.233	7.494	6.598	5.772	5.634	7.039	19.01	57.33	125.1	661.3	1872	931.8	22.48	2.052	1.828	1.496	1.276	1.379	1.159	1.066	1.126	1.088	1.038	1.102	0.996	0.922	1.018
525.0	111.5	112.9	128.6	168.9	227.3	168.7	171.4	602.8	2811	930.9	165.5	154.4	136.6	123.2	105.4	93.80	85.11	81.44	75.15	71.45	68.11	68.65	66.25	66.67	65.62	64.13	64.79	63.39	63.89	64.74	63.23	57.84	52.98	49.66	45.41	41.37	38.25	34.70	32.23	29.77	26.38	23.77	21.56	20.92	23.47	22.72	16.93	12.43	10.42	9.011	7.702	6.924	6.679	5.867	5.258	5.247	7.500	15.94	30.84	157.6	866.0	1780	260.0	13.50	1.866	1.539	1.351	1.242	1.191	1.126	1.033	1.070	0.931	1.018	0.953	0.864	0.930
530.0	88.10	95.96	115.1	133.5	200.4	175.0	140.0	248.8	1606	2286	344.6	134.0	121.7	107.4	92.98	82.75	74.60	70.79	66.28	62.14	60.94	59.71	58.83	58.00	57.21	56.05	55.51	55.62	55.78	55.44	54.58	49.89	46.98	43.57	39.98	36.61	34.36	31.25	28.37	26.12	23.57	21.71	19.95	18.43	18.56	20.73	19.07	13.39	10.33	8.687	7.413	6.790	6.185	5.733	5.376	4.668	4.884	6.482	9.640	37.76	205.6	747.1	1204	708.6	19.49	2.206	1.523	1.215	1.184	1.091	1.011	0.992	0.916	0.999	0.983	0.919	0.892
535.0	83.77	84.65	100.4	109.0	146.1	191.3	134.5	147.6	514.3	2442	1300	130.0	105.9	93.94	80.73	70.87	66.51	61.82	57.36	53.08	52.51	49.95	50.33	49.15	48.38	46.70	47.08	48.54	47.29	48.38	46.97	43.82	41.02	37.78	34.69	32.31	29.79	27.38	24.85	23.51	21.36	19.09	18.07	16.52	15.44	15.79	17.78	15.43	10.53	8.291	7.222	6.493	5.882	5.084	4.774	4.708	4.312	4.205	4.483	10.74	48.04	168.8	368.6	1170	933.4	27.87	1.886	1.268	1.130	1.041	1.017	0.971	0.882	1.025	0.876	0.825	0.958
540.0	73.23	81.39	89.02	90.12	110.7	186.9	143.3	117.6	206.9	1430	2333	212.7	96.48	82.85	71.22	65.38	58.60	53.74	50.64	48.24	46.69	44.65	44.95	43.48	42.52	42.33	42.45	43.58	42.27	42.52	40.42	38.97	35.26	33.74	30.93	28.01	27.16	24.02	21.90	20.66	19.26	17.27	16.32	14.81	14.03	13.14	14.69	15.50	11.47	8.109	6.722	6.157	5.249	4.905	4.581	4.748	4.183	3.654	3.421	4.607	12.80	39.79	85.32	435.9	1297	670.9	20.47	1.506	1.177	1.058	0.931	0.933	0.876	0.907	0.900	0.809	0.902
545.0	66.72	78.89	82.83	82.01	91.43	153.5	159.0	107.3	124.0	564.4	2759	687.7	87.15	72.95	65.97	57.88	52.37	48.32	45.45	43.34	40.58	40.47	40.03	38.86	38.32	37.30	37.05	38.10	37.52	37.44	36.27	34.46	31.21	29.88	27.91	25.47	23.66	21.76	20.30	18.86	16.97	15.59	14.59	13.20	12.61	11.46	11.38	13.51	12.37	8.581	6.604	5.745	5.202	4.554	4.124	4.414	3.869	3.338	3.007	2.971	4.887	10.87	20.80	103.1	577.7	1236	251.6	11.68	1.329	1.102	0.918	0.922	0.976	0.868	0.854	0.736	0.844
550.0	61.33	72.96	72.77	75.95	77.31	106.9	161.9	105.6	92.36	205.8	1528	1992	158.7	65.07	56.74	49.49	44.53	41.30	38.18	36.09	34.87	34.16	32.92	32.64	32.14	31.66	30.50	31.76	30.90	30.53	30.86	29.23	26.44	25.21	23.11	21.36	20.28	18.27	17.18	16.04	14.83	13.96	12.72	11.67	11.09	10.01	9.386	9.852	10.87	9.202	6.665	5.086	4.687	4.182	3.852	3.662	3.682	3.622	2.860	2.633	2.849	4.209	6.334	24.49	136.0	498.3	816.6	503.5	19.07	1.675	1.017	0.936	0.915	0.792	0.765	0.759	0.868
555.0	72.51	73.48	77.77	72.90	68.73	73.07	128.9	123.0	79.48	103.9	450.8	2311	881.8	61.45	46.82	42.00	36.33	32.45	31.71	30.67	29.44	28.43	25.99	25.91	26.81	25.60	25.74	25.77	26.46	25.44	24.48	24.10	21.86	21.09	18.69	17.66	16.64	15.12	14.67	13.34	12.49	11.64	10.93	10.13	9.385	8.392	7.822	7.469	8.022	8.302	7.013	5.261	4.209	3.821	3.473	3.118	2.986	3.095	3.069	2.378	2.188	2.475	2.920	6.602	31.67	112.4	244.3	760.4	608.1	26.43	1.345	1.085	0.944	0.732	0.768	0.746	0.739
560.0	74.24	82.04	78.85	73.31	58.61	62.31	90.73	141.6	79.28	75.25	158.1	1378	1741	116.6	39.40	36.56	31.99	28.15	28.20	25.49	25.50	23.56	22.38	22.50	22.17	22.10	21.45	21.96	21.89	21.99	21.60	20.43	18.70	17.88	16.44	15.34	14.39	13.69	12.15	11.35	10.66	10.06	9.420	8.798	7.981	7.489	6.988	6.333	6.277	6.637	7.058	5.889	3.844	3.693	3.096	3.180	2.727	2.907	2.881	2.367	1.906	1.826	2.024	2.764	8.286	26.35	56.45	281.6	816.5	270.0	17.06	1.069	0.894	0.756	0.719	0.702	0.731
565.0	78.41	94.12	82.53	72.37	53.12	50.71	64.87	136.3	88.40	66.33	84.28	523.9	2347	421.6	35.53	31.06	27.51	26.19	23.87	22.39	21.38	20.02	20.05	19.43	19.65	18.38	19.10	19.13	18.56	19.09	18.15	16.92	15.72	15.34	14.23	13.28	12.43	11.69	10.77	9.895	9.119	9.073	8.242	7.693	7.197	6.439	6.041	5.479	5.152	5.491	6.230	5.898	3.929	3.303	2.964	2.723	2.590	2.405	2.504	2.317	1.979	1.760	1.745	1.842	2.940	7.008	13.74	66.66	356.2	725.7	221.0	7.267	0.981	0.782	0.668	0.683	0.666
570.0	81.88	87.72	87.69	67.14	51.96	44.24	49.29	96.07	111.8	64.20	64.03	171.8	1407	1484	85.76	26.39	23.56	21.45	19.83	18.13	17.64	16.66	16.49	16.24	15.53	15.44	15.28	15.47	15.59	15.53	14.93	14.45	12.89	12.13	11.78	10.82	10.52	9.424	9.200	8.332	7.466	7.414	6.988	6.407	6.066	5.642	5.199	4.723	4.287	4.191	4.434	5.184	4.065	3.146	2.565	2.370	2.315	2.161	2.085	2.117	2.133	1.751	1.485	1.460	1.667	2.632	4.148	15.89	84.09	302.1	507.2	255.2	16.26	1.058	0.749	0.660	0.667
575.0	88.03	98.29	92.53	72.35	49.39	40.69	42.22	58.80	122.1	75.82	62.39	81.86	416.0	1894	556.3	24.97	18.97	17.53	15.66	15.08	14.31	13.75	13.03	13.09	12.85	12.70	12.27	12.38	12.72	12.40	12.27	12.09	10.60	9.949	9.162	9.030	8.667	7.821	7.671	6.934	6.050	6.328	6.299	5.165	5.262	4.907	4.122	4.020	3.634	3.492	3.433	3.930	4.096	3.350	2.545	2.206	2.088	1.926	1.684	1.713	1.841	1.956	1.431	1.338	1.306	1.572	1.877	4.485	19.65	68.36	152.9	449.2	270.4	21.85	0.849	0.787	0.612
580.0	97.40	101.1	99.42	71.41	49.88	41.95	40.54	45.25	103.2	96.70	64.54	65.87	135.6	1186	1223	51.36	17.58	15.20	14.32	13.63	12.15	11.96	11.30	11.13	11.18	10.60	10.51	10.73	11.11	10.71	10.43	9.776	8.904	8.456	7.733	7.761	7.048	6.755	6.678	5.886	5.669	5.348	4.922	4.660	4.453	4.213	3.803	3.655	3.310	2.937	2.721	2.910	3.564	3.452	2.728	2.148	1.739	1.857	1.540	1.607	1.687	1.823	1.722	1.417	1.328	1.235	1.366	1.987	5.219	16.18	35.53	170.9	477.0	225.2	12.41	0.921	0.761
585.0	98.81	104.5	97.54	76.08	47.58	38.11	38.75	42.34	75.82	120.7	70.69	62.63	70.02	454.3	1763	133.3	15.02	13.17	12.95	11.96	10.93	10.15	10.17	9.892	9.665	9.477	9.023	9.062	9.224	9.190	8.562	8.311	7.335	7.403	6.922	6.680	6.025	6.044	5.860	5.048	4.980	4.555	4.483	4.204	4.026	3.622	3.366	3.252	2.997	2.573	2.424	2.485	2.646	3.302	3.032	1.982	1.760	1.600	1.409	1.470	1.258	1.397	1.760	1.603	1.302	1.111	1.239	1.265	2.107	4.555	8.750	40.60	216.9	453.2	158.4	4.635	0.733
590.0	88.37	99.92	91.78	66.21	42.65	34.82	34.40	38.71	54.17	114.9	88.97	62.78	55.98	138.8	1076	1016	43.17	11.81	10.79	9.805	9.172	8.344	8.434	8.447	7.830	7.932	7.669	7.460	7.476	7.380	7.194	6.939	6.415	6.238	5.956	5.632	5.438	5.276	4.887	4.406	4.178	3.890	3.883	3.534	3.344	3.037	2.954	2.760	2.503	2.328	2.087	1.991	1.977	2.515	2.807	2.240	1.740	1.421	1.343	1.290	1.210	1.243	1.300	1.575	1.361	1.230	1.108	1.061	1.334	1.773	2.791	9.812	51.41	185.8	317.9	153.2	14.91
595.0	90.41	97.58	81.56	64.53	39.37	31.80	30.60	38.38	43.59	83.59	112.5	67.69	52.83	58.52	303.8	1433	301.8	10.63	9.325	8.519	7.718	7.362	6.665	6.978	6.407	6.542	6.612	6.112	6.251	6.260	6.337	5.589	5.281	5.484	4.877	4.660	4.793	4.267	4.073	3.956	3.512	3.351	3.213	2.907	2.869	2.400	2.323	2.439	2.100	1.937	1.841	1.768	1.561	1.846	2.218	2.291	1.835	1.467	1.240	1.154	1.095	1.139	1.178	1.291	1.333	1.353	1.022	1.126	0.973	1.108	1.332	2.839	12.09	42.10	94.95	276.3	226.9
600.0	85.39	93.84	83.94	60.64	37.52	31.65	31.56	33.69	42.58	64.33	115.3	75.00	54.49	41.07	87.07	929.0	793.9	22.34	8.038	7.243	6.984	5.940	6.029	6.127	5.587	5.533	5.495	5.294	5.132	5.245	5.156	5.168	4.560	4.316	4.207	3.928	4.046	3.526	3.525	3.201	3.296	2.755	2.805	2.466	2.411	2.078	2.159	2.066	1.904	1.755	1.525	1.513	1.372	1.519	1.754	1.972	1.915	1.565	1.136	1.057	1.140	1.050	1.147	1.116	1.233	1.342	1.078	1.113	0.972	0.963	1.037	1.250	3.397	10.12	22.10	103.4	308.3
605.0	74.88	82.19	75.70	54.76	36.23	29.05	29.68	31.42	42.53	54.37	101.0	89.76	54.75	35.89	35.64	356.8	1135	84.82	7.615	6.347	6.009	5.669	5.112	5.640	5.013	4.999	4.839	4.315	4.459	4.535	4.203	4.414	3.994	3.940	3.577	3.452	3.360	3.122	3.102	2.872	2.743	2.344	2.423	2.123	2.054	1.987	1.863	1.874	1.746	1.491	1.345	1.411	1.308	1.249	1.282	1.626	1.951	1.615	1.193	0.941	1.018	1.028	1.123	1.099	0.959	1.199	1.147	1.083	0.902	0.850	0.909	0.945	1.372	2.843	5.563	24.55	134.6
610.0	69.06	85.11	75.63	53.66	33.65	27.10	27.68	29.81	38.69	48.24	76.85	104.5	56.81	33.64	23.07	97.52	743.5	581.1	22.45	6.157	5.352	4.774	4.536	4.479	4.096	4.201	4.145	3.641	3.842	3.908	3.697	3.633	3.497	3.154	3.184	2.872	2.783	2.748	2.588	2.485	2.318	2.178	2.013	1.884	1.819	1.719	1.601	1.684	1.528	1.283	1.167	1.226	1.122	1.081	1.023	1.129	1.569	1.492	1.310	0.967	0.977	0.934	0.978	1.008	1.004	1.129	1.135	1.024	0.976	0.867	0.875	0.828	0.910	1.233	1.783	6.081	31.73
615.0	64.62	76.73	62.05	47.51	30.98	25.69	25.74	26.22	35.99	44.41	60.18	100.3	67.97	32.66	19.96	31.86	215.1	893.9	91.41	5.769	4.658	4.568	4.106	3.646	3.461	3.423	3.769	3.275	3.303	3.242	3.170	2.928	2.992	2.595	2.617	2.634	2.412	2.383	2.115	2.025	1.830	1.971	1.776	1.543	1.604	1.554	1.475	1.510	1.427	1.087	1.052	1.058	0.998	0.963	0.845	0.909	1.099	1.341	1.303	1.006	0.912	0.876	0.860	0.857	0.843	0.939	0.971	1.109	1.004	0.863	0.718	0.748	0.748	0.808	0.866	1.810	7.611
620.0	66.27	79.50	55.73	42.48	28.71	25.64	24.84	26.54	33.98	42.98	53.10	77.80	78.84	32.78	19.34	16.55	57.98	633.9	491.3	10.68	4.751	3.735	3.377	3.636	3.201	2.813	3.070	2.896	3.008	2.898	2.910	2.762	2.627	2.487	2.349	2.365	1.990	2.159	1.993	1.719	1.867	1.710	1.520	1.441	1.451	1.337	1.284	1.350	1.209	1.023	1.055	0.953	0.862	0.896	0.831	0.852	0.929	1.080	1.204	1.095	0.876	0.828	0.785	0.834	0.837	0.819	0.897	0.974	1.043	0.864	0.741	0.693	0.646	0.735	0.712	0.899	2.244
625.0	68.18	70.25	56.95	40.59	30.22	22.97	23.13	25.37	33.96	39.57	49.40	63.05	83.84	36.77	19.05	12.93	19.54	255.5	795.3	53.77	4.214	3.450	3.089	3.336	3.064	2.841	2.535	2.798	2.521	2.621	2.459	2.454	2.491	2.174	2.230	2.204	2.026	2.074	1.898	1.683	1.602	1.554	1.265	1.299	1.235	1.177	1.078	1.093	1.048	0.886	0.876	0.844	0.815	0.836	0.779	0.776	0.814	0.781	1.188	0.982	1.020	0.800	0.869	0.919	0.889	0.863	0.861	0.870	1.018	1.038	0.757	0.660	0.753	0.625	0.668	0.685	1.012
630.0	62.06	62.13	52.59	36.77	28.00	21.98	21.80	24.34	31.44	37.49	45.68	52.51	71.49	49.30	19.24	12.13	11.32	68.89	579.0	392.9	11.21	3.520	3.074	2.903	2.773	2.387	2.178	2.373	2.227	2.469	2.268	2.236	2.041	2.070	2.001	1.921	1.811	1.822	1.715	1.528	1.600	1.311	1.102	1.189	1.152	1.033	0.985	1.004	0.880	0.770	0.771	0.788	0.761	0.764	0.743	0.789	0.760	0.732	0.827	0.902	0.955	0.799	0.780	0.777	0.758	0.780	0.851	0.827	0.806	0.853	0.910	0.735	0.605	0.651	0.619	0.689	0.714
635.0	51.41	56.45	47.81	35.72	25.38	21.65	20.75	26.06	28.92	36.70	43.68	45.67	51.67	56.08	22.75	12.50	8.966	21.19	175.3	674.5	69.37	3.336	2.827	2.648	2.308	2.019	1.975	1.987	1.942	2.260	2.108	1.735	1.674	1.824	1.552	1.804	1.782	1.593	1.405	1.423	1.381	1.291	1.061	1.059	1.073	0.985	0.918	0.968	0.762	0.663	0.685	0.697	0.659	0.715	0.751	0.683	0.768	0.755	0.749	0.716	0.882	0.826	0.793	0.740	0.711	0.727	0.749	0.709	0.762	0.720	0.789	0.805	0.727	0.622	0.650	0.548	0.648
640.0	63.35	56.90	50.63	37.61	21.88	21.83	20.43	23.87	27.08	35.92	39.64	44.36	44.06	54.86	28.27	13.01	9.517	9.913	46.68	517.6	333.3	6.042	2.369	2.314	1.973	1.912	1.932	2.008	1.960	1.837	1.882	1.620	1.497	1.639	1.661	1.429	1.556	1.450	1.324	1.286	1.171	1.188	0.947	0.997	0.891	0.845	0.799	0.840	0.751	0.623	0.627	0.619	0.660	0.607	0.648	0.646	0.758	0.682	0.692	0.604	0.844	0.827	0.782	0.713	0.673	0.699	0.740	0.730	0.689	0.649	0.696	0.764	0.787	0.630	0.609	0.528	0.571
645.0	57.22	55.95	44.19	34.35	24.05	20.31	21.22	22.68	26.81	33.76	38.60	42.39	40.89	43.79	37.36	14.46	9.682	8.337	15.22	226.4	587.3	33.50	2.383	2.076	2.126	1.977	1.916	1.686	1.659	1.647	1.692	1.379	1.390	1.485	1.510	1.320	1.464	1.453	1.212	1.119	1.042	1.187	0.922	0.923	0.780	0.798	0.788	0.831	0.710	0.583	0.622	0.599	0.567	0.619	0.648	0.672	0.667	0.655	0.615	0.665	0.675	0.810	0.804	0.722	0.699	0.687	0.661	0.691	0.677	0.674	0.661	0.747	0.750	0.664	0.650	0.570	0.608
650.0	55.54	56.84	46.31	34.49	25.69	19.78	21.09	22.74	24.56	33.08	37.28	39.72	37.67	35.99	41.78	15.79	9.263	8.686	8.119	66.75	583.5	162.5	2.913	2.076	2.041	1.882	1.759	1.649	1.646	1.480	1.346	1.470	1.214	1.414	1.465	1.273	1.315	1.375	1.201	1.011	0.908	0.944	0.999	0.865	0.840	0.766	0.719	0.736	0.650	0.563	0.592	0.566	0.527	0.577	0.586	0.615	0.548	0.547	0.715	0.628	0.618	0.629	0.796	0.686	0.625	0.681	0.656	0.586	0.649	0.700	0.613	0.593	0.678	0.612	0.619	0.508	0.617
