Sample:	'1
File name:	g2025082007ÖÐ·úÂ· 2±¶.FD3
Run date:	'15:44:09, 08/20/2025
Operator:	Administrator
Comment:	'

Instrument
Model:	F-2700 FL Spectrophotometer
Serial number:	23B8-004
ROM Version:	4J14000 07

Instrument parameters
Measurement type:	3-D scan
Data mode:	Fluorescence
EX  Start WL:	220.0 nm
EX  End WL:	600.0 nm
EX Sampling interval:	5.0 nm
EM  Start WL:	230.0 nm
EM  End WL:	650.0 nm
EM Sampling interval:	5.0 nm
Scan speed:	12000 nm/min
EX Slit:	5.0 nm
EM Slit:	5.0 nm
PMT Voltage:	700 V
Response:	Auto 
Corrected spectra:	Off
Contour interval:	50.000

Peak integration
Integration method:	Rectangular
Sensitivity:	1
Threshold:	1.000

Peaks
No.	ApexEX/EM(nm)	Height(Data)
1	225.0/305.0	606.3
2	225.0/590.0	52.32
3	225.0/605.0	44.61
4	225.0/640.0	43.93
5	230.0/340.0	1889
6	230.0/500.0	232.2
7	230.0/555.0	45.24
8	230.0/625.0	34.26
9	235.0/510.0	203.8
10	240.0/265.0	433.1
11	240.0/525.0	190.9
12	245.0/535.0	173.7
13	250.0/550.0	148.2
14	255.0/280.0	673.9
15	255.0/565.0	133.3
16	260.0/575.0	127.2
17	265.0/590.0	116.8
18	270.0/300.0	1409
19	270.0/600.0	122.7
20	275.0/305.0	1458
21	275.0/610.0	100.1
22	280.0/625.0	82.05
23	285.0/645.0	80.69
24	300.0/340.0	2794
25	335.0/380.0	360.8
26	340.0/390.0	320.7
27	345.0/395.0	300.8
28	350.0/400.0	319.0
29	365.0/420.0	229.5
30	370.0/425.0	213.3
31	395.0/460.0	86.40
32	400.0/465.0	75.15
33	415.0/485.0	42.38
34	430.0/505.0	27.09
35	445.0/525.0	15.95
36	455.0/540.0	10.29
37	470.0/560.0	5.277
38	485.0/340.0	7.155
39	485.0/580.0	2.748
40	495.0/270.0	2.462
41	505.0/275.0	3.465
42	510.0/280.0	3.746
43	520.0/285.0	4.327
44	530.0/290.0	4.379
45	540.0/295.0	6.444
46	545.0/300.0	6.999
47	550.0/305.0	7.067
48	560.0/310.0	6.265

Data points
	220.0	225.0	230.0	235.0	240.0	245.0	250.0	255.0	260.0	265.0	270.0	275.0	280.0	285.0	290.0	295.0	300.0	305.0	310.0	315.0	320.0	325.0	330.0	335.0	340.0	345.0	350.0	355.0	360.0	365.0	370.0	375.0	380.0	385.0	390.0	395.0	400.0	405.0	410.0	415.0	420.0	425.0	430.0	435.0	440.0	445.0	450.0	455.0	460.0	465.0	470.0	475.0	480.0	485.0	490.0	495.0	500.0	505.0	510.0	515.0	520.0	525.0	530.0	535.0	540.0	545.0	550.0	555.0	560.0	565.0	570.0	575.0	580.0	585.0	590.0	595.0	600.0
230.0	32.68	961.6	2665	828.5	35.33	4.214	3.862	3.479	3.334	3.238	3.026	2.780	3.071	2.470	2.257	1.844	1.822	1.453	1.309	1.314	1.051	0.819	0.888	0.714	0.735	0.665	0.615	0.575	0.496	0.424	0.457	0.366	0.302	0.358	0.242	0.253	0.274	0.191	0.217	0.140	0.229	0.320	0.284	0.233	0.197	0.167	0.996	5.619	11.33	9.167	3.696	0.631	0.165	0.080	0.096	0.068	0.121	0.065	0.081	0.103	0.103	0.063	0.065	0.092	0.032	0.055	0.040	0.052	0.042	0.080	0.057	0.039	0.043	0.032	0.058	0.029	0.043
235.0	73.96	263.3	1724	3516	594.5	66.80	7.357	5.374	3.785	4.169	3.605	4.339	2.831	2.743	1.892	1.483	2.115	1.496	1.647	1.358	0.928	0.906	0.793	0.790	0.731	0.721	0.568	0.671	0.577	0.509	0.472	0.372	0.307	0.325	0.360	0.202	0.229	0.168	0.215	0.130	0.259	0.179	0.340	0.418	0.236	0.282	0.335	1.400	4.337	8.623	13.97	14.97	7.709	1.481	0.144	0.121	0.096	0.066	0.058	0.095	0.069	0.063	0.076	0.089	0.055	0.090	0.085	0.038	0.010	0.072	0.053	0.038	0.017	0.067	0.039	0.055	0.034
240.0	116.7	136.6	518.8	3172	3821	484.3	40.14	7.044	4.403	4.394	4.378	4.410	3.936	3.330	2.663	1.911	2.133	1.446	1.577	1.343	1.142	1.011	0.766	0.854	0.743	0.789	0.543	0.545	0.591	0.577	0.417	0.326	0.479	0.274	0.312	0.244	0.278	0.184	0.276	0.184	0.245	0.121	0.328	0.317	0.351	0.485	0.380	0.503	1.076	2.534	7.222	18.63	25.76	18.14	6.892	1.026	0.165	0.104	0.147	0.142	0.084	0.069	0.073	0.105	0.121	0.097	0.040	0.050	0.039	0.030	0.077	-0.010	-0.005	0.061	0.047	0.025	0.077
245.0	82.26	191.4	177.5	1065	4179	3816	383.0	18.89	7.273	4.927	5.269	4.705	3.877	3.383	2.624	2.501	2.004	2.030	1.389	1.269	1.026	0.982	0.867	0.963	0.805	0.781	0.552	0.679	0.501	0.496	0.442	0.380	0.519	0.231	0.372	0.324	0.270	0.180	0.255	0.220	0.188	0.177	0.298	0.172	0.247	0.537	0.624	0.649	0.522	0.746	1.767	5.920	15.96	28.64	28.37	17.45	5.070	0.485	0.138	0.192	0.088	0.150	0.062	0.132	0.164	0.072	0.050	0.142	0.107	0.034	0.044	0.051	0.119	0.108	0.075	0.070	0.084
250.0	34.08	143.0	257.4	342.5	1319	4077	5262	1475	94.62	8.529	6.561	6.457	4.282	3.902	3.109	2.577	2.616	2.289	1.628	1.630	1.251	1.060	1.085	0.904	0.756	1.018	0.723	0.638	0.550	0.496	0.537	0.417	0.460	0.289	0.390	0.326	0.316	0.282	0.292	0.255	0.212	0.232	0.230	0.199	0.231	0.334	0.466	0.736	0.944	0.851	0.804	1.591	3.846	8.926	16.85	27.50	32.64	34.67	14.78	5.608	0.568	0.149	0.156	0.135	0.188	0.088	0.087	0.132	0.091	0.062	0.074	0.095	0.127	0.088	0.105	0.009	0.096
255.0	18.43	44.40	178.6	381.5	397.6	1018	4228	9735	2100	115.7	12.43	8.048	6.379	4.947	3.755	2.996	3.000	2.188	1.774	1.775	1.217	1.052	1.044	1.026	0.926	0.891	0.815	0.739	0.789	0.545	0.654	0.505	0.310	0.401	0.361	0.332	0.331	0.359	0.397	0.206	0.328	0.252	0.275	0.195	0.224	0.199	0.297	0.372	0.507	0.856	1.462	1.580	1.440	2.291	4.007	6.559	11.33	29.89	55.10	61.38	23.65	6.910	0.466	0.253	0.180	0.091	0.162	0.094	0.087	0.121	0.125	0.083	0.125	0.086	0.155	0.073	0.083
260.0	17.24	22.29	72.07	322.1	381.2	292.2	1260	7771	9999.9	1650	66.00	11.76	8.406	6.004	4.614	3.721	3.667	2.258	2.050	1.885	1.498	1.409	1.077	1.019	1.034	0.971	0.615	0.803	0.823	0.644	0.578	0.523	0.555	0.454	0.492	0.281	0.277	0.382	0.382	0.232	0.307	0.246	0.220	0.264	0.242	0.203	0.243	0.277	0.278	0.417	0.891	1.854	2.033	1.410	1.173	1.618	2.828	7.639	22.15	52.03	73.20	32.77	19.82	3.730	0.316	0.194	0.159	0.189	0.084	0.107	0.172	0.145	0.156	0.114	0.154	0.054	0.181
265.0	20.89	18.06	33.45	142.9	433.1	285.2	328.7	2497	9999.9	9999.9	1183	29.19	11.50	7.202	5.517	4.347	3.774	2.947	2.386	2.229	1.912	1.371	1.215	1.285	1.074	1.016	0.903	0.967	0.998	0.766	0.635	0.529	0.604	0.510	0.506	0.437	0.318	0.331	0.288	0.237	0.290	0.282	0.306	0.352	0.275	0.258	0.229	0.252	0.098	0.213	0.403	0.959	1.968	2.339	1.761	0.888	0.822	1.911	5.335	14.36	35.93	67.76	93.04	30.57	14.72	1.460	0.258	0.215	0.194	0.158	0.119	0.150	0.172	0.130	0.211	0.067	0.179
270.0	43.47	39.58	36.03	53.41	204.2	425.0	328.8	625.6	3144	9999.9	9999.9	3762	74.70	12.24	8.623	6.352	5.060	3.710	2.742	2.712	2.069	1.655	1.700	1.400	1.301	1.068	1.039	0.950	0.956	0.779	0.754	0.629	0.590	0.555	0.506	0.479	0.391	0.449	0.366	0.325	0.283	0.344	0.407	0.384	0.368	0.304	0.283	0.259	0.242	0.233	0.278	0.368	0.676	1.180	1.927	2.462	2.000	1.364	1.597	3.525	8.522	18.69	40.77	59.20	82.85	67.75	48.06	10.03	1.425	0.257	0.254	0.255	0.224	0.181	0.174	0.089	0.211
275.0	109.4	109.8	95.45	58.49	72.73	194.8	563.0	414.6	773.0	2471	9093	9999.9	1387	81.58	13.12	9.410	7.370	5.211	3.722	3.072	2.592	2.086	1.597	1.642	1.389	1.215	1.035	1.075	0.979	0.911	0.817	0.746	0.730	0.757	0.663	0.611	0.536	0.468	0.539	0.419	0.333	0.396	0.444	0.441	0.575	0.424	0.476	0.394	0.410	0.381	0.353	0.310	0.441	0.442	0.694	1.192	2.280	3.465	2.761	1.552	2.302	4.659	9.415	14.08	22.50	43.55	102.6	122.0	30.92	12.99	1.030	0.367	0.248	0.223	0.199	0.208	0.175
280.0	179.2	187.7	151.2	90.79	57.00	83.69	358.8	673.9	369.4	657.0	2606	9999.9	9999.9	1046	48.69	11.36	9.419	6.868	4.368	3.977	3.035	2.620	2.017	1.927	1.431	1.217	1.228	1.177	0.955	0.935	0.785	0.706	0.940	0.792	0.777	0.728	0.665	0.625	0.529	0.421	0.474	0.617	0.473	0.507	0.550	0.741	0.690	0.666	0.599	0.515	0.468	0.431	0.376	0.400	0.429	0.515	0.985	2.417	3.746	3.538	2.056	1.704	2.708	3.810	5.702	10.79	31.96	79.77	120.9	116.3	26.36	6.472	0.551	0.338	0.263	0.343	0.169
285.0	251.3	282.7	229.6	134.7	74.54	68.45	161.0	607.0	624.7	333.8	759.6	3516	9999.9	9365	716.8	22.34	12.97	8.114	5.631	4.604	3.260	2.671	2.498	2.248	1.738	1.609	1.352	1.200	0.905	1.051	0.942	0.790	0.884	0.975	0.803	0.870	0.686	0.664	0.641	0.526	0.596	0.662	0.569	0.580	0.692	0.945	0.905	0.941	0.869	0.709	0.608	0.648	0.443	0.475	0.421	0.377	0.587	0.987	2.042	3.989	4.327	2.796	1.721	1.626	2.253	3.231	8.126	20.17	46.70	103.4	139.1	35.42	19.73	2.593	0.483	0.415	0.236
290.0	359.5	428.8	345.7	204.6	118.0	91.57	122.2	312.1	731.2	757.5	559.1	1114	3797	9999.9	9999.9	2536	47.10	12.52	8.026	6.386	4.183	3.301	3.053	2.667	1.913	1.808	1.540	1.474	1.203	1.228	0.981	1.040	0.984	1.066	1.102	0.978	0.903	0.852	0.805	0.620	0.642	0.617	0.725	0.741	0.911	1.165	1.178	1.304	1.234	1.088	0.834	0.829	0.624	0.522	0.585	0.572	0.588	0.783	1.114	1.848	2.988	3.926	4.379	3.515	2.586	2.288	3.437	6.074	11.92	26.28	49.80	67.63	101.0	81.77	67.15	13.60	3.037
295.0	449.6	549.7	455.8	276.5	163.4	124.0	149.4	243.2	453.9	991.8	1070	770.2	1233	2599	9498	9999.9	758.5	51.90	11.50	9.153	5.744	4.176	3.708	3.074	2.333	1.948	1.793	1.626	1.338	1.395	1.137	1.161	1.113	1.102	1.166	1.131	1.137	0.968	0.849	0.686	0.893	0.755	0.853	0.862	1.194	1.317	1.425	1.635	1.439	1.241	1.003	1.062	0.717	0.703	0.692	0.747	0.672	0.922	1.155	1.500	1.784	2.216	3.486	5.479	6.444	4.489	3.148	3.448	4.571	7.770	12.66	16.41	25.07	40.36	101.1	148.5	36.49
300.0	449.6	599.0	510.1	322.1	189.7	151.2	176.0	254.4	408.5	761.1	1409	1011	745.5	823.9	2650	9999.9	9999.9	618.6	29.31	11.84	7.716	5.502	4.488	3.543	2.697	2.261	2.090	1.751	1.594	1.522	1.502	1.057	1.196	1.370	1.287	1.157	1.088	0.956	0.971	0.581	0.799	0.924	0.827	0.940	1.235	1.437	1.633	1.780	1.582	1.316	1.181	1.116	0.956	0.818	0.749	0.811	0.918	0.992	1.088	1.338	1.836	1.888	2.480	3.641	5.837	6.999	6.158	4.021	3.530	4.091	4.582	5.066	6.531	9.969	28.15	75.36	126.1
305.0	478.1	606.3	524.7	337.6	209.2	179.2	205.8	290.6	425.6	651.1	1187	1458	784.5	470.9	727.9	3336	9999.9	9999.9	435.9	20.31	10.65	7.018	5.402	4.210	3.132	2.960	2.659	2.027	2.049	1.741	1.350	1.272	1.323	1.519	1.404	1.342	1.092	1.116	1.031	0.746	0.927	0.936	0.805	0.822	1.280	1.342	1.707	1.930	1.666	1.559	1.207	1.250	1.112	0.935	0.924	0.781	1.090	1.268	1.267	1.534	1.785	2.101	2.314	3.149	4.307	5.354	7.067	7.008	4.997	3.565	3.097	2.643	2.587	3.053	7.052	18.07	41.39
310.0	466.0	598.1	549.7	364.4	246.0	213.6	245.8	323.3	451.5	637.2	920.4	1306	1201	562.2	361.8	887.1	3776	9999.9	9999.9	1904	36.07	11.82	7.654	5.281	3.894	3.596	3.011	2.500	1.972	1.893	1.670	1.457	1.463	1.466	1.411	1.342	1.249	1.096	1.006	0.863	0.908	0.828	0.889	0.938	1.272	1.369	1.737	1.882	1.760	1.577	1.282	1.316	1.133	1.164	1.137	1.073	1.243	1.420	1.413	1.691	1.824	2.220	2.523	3.150	3.627	3.972	5.015	6.050	6.265	6.162	4.413	2.785	2.050	1.908	2.478	4.998	10.23
315.0	507.2	651.3	639.0	515.1	423.9	405.3	389.0	402.0	540.2	712.9	942.6	1120	1297	1159	650.4	653.3	1279	2739	9405	9999.9	2572	41.51	12.78	7.259	5.486	4.295	3.374	2.952	2.700	2.118	2.008	1.734	1.709	1.393	1.591	1.217	1.204	1.248	1.136	0.900	0.930	0.867	1.126	1.144	1.287	1.587	1.971	2.182	2.121	1.802	1.622	2.130	1.826	1.952	2.080	2.004	1.939	1.854	1.965	1.971	2.338	2.687	2.911	3.450	3.866	4.291	4.567	4.790	5.086	5.769	6.799	6.559	4.563	3.562	3.296	3.720	5.188
320.0	620.7	870.0	953.2	815.7	689.5	736.9	616.9	566.5	706.3	918.4	1145	1328	1429	1685	1132	980.1	1026	1269	3142	9999.9	9999.9	454.3	25.88	10.81	6.777	5.248	4.285	3.301	2.998	2.488	2.043	1.803	1.620	1.425	1.479	1.307	1.611	1.412	1.220	1.073	1.090	1.083	1.220	1.351	1.666	2.023	2.272	2.905	2.969	2.610	2.621	2.967	3.103	3.462	3.583	3.287	3.121	2.808	2.448	2.667	3.064	3.583	3.767	4.157	4.570	5.349	5.444	5.859	6.217	6.538	7.345	8.294	8.824	7.683	6.461	6.358	6.893
325.0	755.5	1145	1268	1102	1032	997.5	808.2	704.1	854.3	1076	1342	1549	1645	1827	1974	1643	1511	1351	1511	3984	9999.9	9999.9	340.2	16.16	9.203	6.332	4.962	4.153	3.038	2.783	2.606	1.944	1.867	1.717	1.604	1.376	1.684	1.479	1.250	1.337	1.361	1.350	1.385	1.481	1.956	2.590	2.878	3.894	4.214	3.574	3.583	3.924	4.239	4.544	4.263	4.290	4.236	3.780	3.134	3.317	3.578	4.275	4.795	4.920	5.476	5.951	6.419	6.729	7.058	7.453	8.049	8.503	9.896	11.38	10.41	9.479	9.060
330.0	840.6	1303	1518	1352	1272	1189	932.1	787.9	937.8	1179	1440	1668	1801	1932	2132	2207	1964	1575	1298	1621	3774	9999.9	9999.9	1511	25.66	9.660	6.545	5.286	4.082	3.428	2.872	2.248	2.030	1.902	1.708	1.597	1.664	1.482	1.448	1.450	1.358	1.424	1.549	1.595	2.126	2.590	3.196	4.201	4.751	4.375	4.300	5.015	5.210	5.384	5.410	4.804	4.959	4.089	3.552	3.914	4.023	4.511	5.160	5.537	6.041	6.433	7.148	7.069	7.849	8.085	8.726	9.167	10.08	11.51	12.16	12.63	12.24
335.0	959.6	1456	1752	1640	1613	1469	1126	915.3	1061	1321	1619	1857	2080	2253	2409	2548	2663	2046	1508	1278	1238	2501	9359	9999.9	439.0	28.48	9.294	7.075	4.771	3.721	3.243	2.695	2.326	1.915	1.932	1.753	1.713	1.655	1.515	1.553	1.707	1.580	1.660	1.808	2.470	2.857	3.267	4.607	5.209	5.410	5.178	5.969	6.571	6.526	6.484	6.036	6.095	4.743	4.217	4.424	4.639	5.160	5.883	6.293	6.447	7.176	7.838	8.393	8.945	9.319	9.894	10.93	11.99	12.81	12.86	14.00	15.27
340.0	1002	1558	1889	1767	1729	1585	1223	964.3	1116	1378	1675	1941	2168	2386	2555	2608	2794	2372	1644	1255	701.8	671.7	2646	9999.9	9999.9	384.7	17.39	8.852	6.529	4.828	3.794	3.148	2.520	2.031	1.982	1.929	1.761	1.774	1.587	1.434	1.611	1.615	1.716	1.947	2.288	3.105	3.529	4.766	5.494	5.589	5.525	6.848	6.977	7.155	6.808	6.313	6.473	5.069	4.681	4.558	4.818	5.284	6.038	6.512	6.962	7.469	8.151	8.741	9.259	9.759	10.53	11.38	12.50	13.44	13.81	14.48	15.02
345.0	939.3	1503	1821	1769	1702	1561	1205	949.0	1091	1314	1596	1846	2066	2305	2443	2481	2563	2362	1713	1203	565.3	268.4	650.8	3411	9999.9	9749	55.32	12.03	8.125	5.727	4.429	3.464	2.744	2.068	1.998	1.896	1.847	1.763	1.425	1.705	1.671	1.689	1.784	1.894	2.112	2.989	3.607	4.706	5.469	5.396	5.426	7.002	6.641	7.154	6.740	6.614	6.174	5.332	4.403	4.297	4.801	5.342	5.547	6.201	6.693	6.897	7.986	8.538	8.997	9.511	10.02	11.20	11.83	12.51	13.14	13.66	14.09
350.0	864.0	1320	1657	1667	1643	1507	1170	918.2	1036	1224	1470	1691	1905	2120	2268	2302	2315	2058	1707	1231	527.6	189.8	212.6	815.9	3376	9999.9	7936	1351	22.18	7.884	5.523	3.786	3.144	2.562	2.197	1.905	1.829	1.780	1.709	1.593	1.533	1.597	1.477	1.824	2.173	2.796	3.236	4.337	5.006	4.911	5.141	6.333	6.615	6.586	6.560	6.066	6.005	5.086	4.253	4.314	4.594	5.143	5.282	5.931	6.275	6.450	6.889	7.604	8.249	8.912	9.368	10.27	10.82	12.09	12.76	12.84	13.40
355.0	764.7	1188	1515	1585	1597	1448	1135	899.8	1001	1157	1361	1552	1746	1954	2094	2150	2130	1829	1494	1281	593.1	190.2	132.2	243.4	797.6	2419	7291	9999.9	411.1	23.53	7.679	5.325	3.660	2.905	2.576	2.194	1.820	1.760	1.584	1.666	1.551	1.453	1.544	1.624	2.101	2.524	2.743	3.919	4.678	4.706	4.931	6.048	6.328	6.524	6.589	6.012	5.682	5.023	4.395	4.268	4.275	4.820	5.104	5.771	5.634	6.286	6.370	6.749	7.571	8.243	8.491	9.084	10.12	10.80	11.56	12.23	12.09
360.0	673.3	1084	1354	1444	1481	1385	1095	874.4	962.7	1104	1249	1420	1600	1776	1904	1942	1933	1657	1315	1141	676.9	231.9	128.7	127.3	231.0	582.0	2059	9999.9	9999.9	359.3	14.51	7.041	4.849	3.513	2.761	2.203	1.892	1.758	1.752	1.721	1.572	1.504	1.679	1.460	1.862	2.303	2.677	3.582	4.102	4.209	4.570	5.464	5.868	6.078	6.158	5.811	5.132	4.578	4.123	4.283	4.438	4.400	4.872	5.553	5.311	6.003	5.981	6.222	6.869	7.291	8.210	8.618	9.422	10.31	10.55	10.87	11.34
365.0	632.4	966.2	1205	1313	1385	1295	1048	853.3	913.6	1030	1165	1302	1435	1589	1707	1734	1723	1479	1165	953.2	654.2	332.8	152.6	114.4	118.9	179.3	501.4	3242	9999.9	8326	50.98	10.16	6.367	4.281	3.232	2.557	1.857	2.045	1.798	1.630	1.552	1.529	1.721	1.459	1.833	2.132	2.347	3.194	3.771	3.666	4.055	4.990	5.562	5.707	5.560	4.955	5.117	4.334	4.000	3.759	4.233	4.247	4.802	4.936	4.936	5.328	5.553	6.189	6.153	6.486	7.270	7.700	8.135	8.977	9.481	9.898	10.08
370.0	556.3	863.9	1080	1187	1258	1197	972.2	821.7	855.0	956.7	1057	1155	1265	1386	1466	1494	1480	1284	1023	818.2	518.5	381.7	264.0	150.1	116.0	110.2	168.1	772.8	3250	9210	7239	1207	20.22	6.873	4.504	3.272	2.406	2.153	1.753	1.676	1.504	1.427	1.569	1.551	1.722	2.020	2.120	2.849	3.134	3.352	3.706	4.487	4.986	5.339	5.079	4.842	4.883	4.301	3.758	3.729	3.921	4.028	4.250	4.535	4.498	4.860	4.863	5.048	5.541	5.903	6.213	6.711	7.072	7.811	8.070	8.282	8.651
375.0	488.9	758.5	969.3	1101	1152	1132	929.3	787.6	807.5	882.8	973.3	1056	1164	1231	1269	1280	1275	1112	895.7	725.8	450.5	317.0	353.5	264.1	154.8	127.4	133.3	255.6	784.0	2262	6749	9999.9	359.5	23.63	6.324	3.987	2.959	2.399	1.847	1.937	1.644	1.316	1.523	1.476	1.630	1.819	2.046	2.730	2.760	3.151	3.249	4.209	4.704	5.064	4.693	4.387	4.316	3.922	3.552	3.607	3.926	3.898	3.906	4.157	4.250	4.631	4.966	4.691	4.880	5.298	5.995	5.844	6.157	7.008	7.096	7.206	7.910
380.0	459.6	688.7	885.8	1031	1088	1066	883.9	763.9	774.8	847.3	922.3	981.2	1094	1113	1125	1119	1122	985.1	807.1	665.4	429.4	294.7	316.3	360.8	221.3	156.6	155.7	167.5	256.1	581.6	1972	8840	8554	309.6	12.10	5.105	3.962	2.932	2.246	1.924	1.578	1.346	1.383	1.481	1.517	1.880	2.045	2.380	2.736	2.876	3.047	4.168	4.599	4.431	4.382	4.276	3.995	3.832	3.421	3.537	3.569	3.877	3.890	4.091	4.169	4.569	4.458	4.200	4.596	4.870	5.468	5.180	5.615	6.051	6.162	6.231	6.435
385.0	398.1	630.2	818.7	965.9	1026	1005	830.8	737.5	742.0	803.2	869.1	916.2	1023	1008	997.8	992.2	986.9	876.0	726.4	611.9	416.0	296.3	286.6	350.2	313.4	193.3	178.8	168.9	153.7	216.5	550.6	2829	9588	6669	42.42	7.830	4.838	3.569	2.772	2.050	1.750	1.461	1.488	1.490	1.543	1.654	1.927	2.127	2.529	2.708	2.865	3.826	4.077	4.216	4.253	4.198	3.977	3.760	3.472	3.243	3.414	3.409	3.586	3.658	3.821	4.247	4.278	3.904	4.593	4.858	5.010	4.748	5.045	5.253	5.433	5.702	5.773
390.0	385.0	558.3	758.7	849.1	927.3	896.4	772.9	696.5	694.3	736.2	783.8	810.9	895.8	873.9	855.8	847.4	842.1	758.5	642.2	553.6	393.4	299.4	274.5	286.2	320.7	274.2	201.0	166.2	130.0	132.2	214.0	716.9	2879	6870	5395	985.8	16.12	4.861	3.289	2.535	1.875	1.542	1.525	1.498	1.509	1.616	1.862	2.064	2.455	2.622	2.661	3.407	3.768	3.899	4.036	3.766	3.914	3.430	3.170	3.058	3.174	3.236	3.173	3.463	3.467	3.742	3.667	3.588	3.736	4.176	4.465	4.332	4.327	4.606	4.835	4.838	4.888
395.0	363.0	506.6	677.8	781.5	838.3	833.1	734.8	657.9	661.2	682.2	719.5	732.0	796.4	769.5	740.7	728.1	726.2	655.6	566.8	496.2	379.5	302.9	279.8	268.0	264.9	300.8	276.0	188.7	135.8	122.1	144.0	241.8	682.2	1653	4724	7740	302.7	17.17	4.538	3.359	2.381	1.926	1.716	1.652	1.608	1.624	1.678	2.219	2.496	2.315	2.528	3.222	3.411	3.749	3.899	3.272	3.523	3.383	3.212	2.967	3.115	2.972	2.900	3.065	3.303	3.112	3.453	3.069	3.404	3.686	3.944	3.683	3.740	3.962	4.049	4.298	4.400
400.0	340.6	484.4	633.5	731.1	783.3	793.5	692.4	635.4	635.0	646.5	684.5	693.8	743.2	705.7	666.6	653.3	646.1	598.4	521.8	465.4	367.3	308.4	285.6	274.7	254.0	272.4	319.0	239.0	152.8	133.8	143.9	148.4	197.9	394.2	1308	6200	6524	267.2	9.514	4.244	2.910	2.291	1.795	1.738	1.694	1.641	1.641	2.056	2.162	2.175	2.460	3.052	3.178	3.477	3.588	3.242	3.232	3.286	2.922	2.794	2.969	2.985	3.006	3.033	2.991	3.002	2.941	3.126	3.137	3.236	3.803	3.493	3.514	3.590	3.723	3.943	4.095
405.0	327.6	468.7	617.6	702.4	750.1	746.1	663.8	614.9	607.8	622.2	644.6	650.7	690.2	655.3	611.3	592.6	586.5	541.4	482.6	436.2	358.4	306.1	287.3	275.2	255.7	249.0	297.3	296.6	182.4	147.1	150.7	134.9	96.59	116.0	312.3	1862	6804	5180	38.31	5.853	3.432	2.619	2.051	1.773	1.677	1.457	1.488	2.000	2.044	2.097	2.298	2.855	3.110	3.382	3.185	3.100	3.020	3.172	2.933	2.910	2.999	2.825	2.747	3.089	2.970	3.133	2.798	2.814	2.928	3.127	3.492	3.120	3.060	3.248	3.459	3.351	3.528
410.0	303.8	440.8	557.6	637.7	684.4	678.0	619.2	583.4	584.7	591.6	599.7	590.5	616.7	585.0	543.8	527.2	514.4	482.2	436.6	398.9	339.9	297.6	284.2	269.8	253.2	237.2	246.5	274.8	235.6	165.0	143.8	121.6	74.64	59.31	91.52	433.5	1975	4967	4149	910.6	14.21	3.425	2.526	2.031	1.678	1.702	1.625	1.854	2.083	2.021	2.218	2.781	2.920	2.944	2.973	3.088	2.859	2.816	2.761	2.827	2.591	2.803	2.693	2.694	2.922	2.859	2.679	2.529	2.744	2.906	3.099	2.977	2.937	2.965	3.064	2.926	3.139
415.0	282.2	423.9	497.7	574.7	625.6	617.9	593.3	555.7	554.3	549.7	549.8	536.4	543.6	524.8	486.6	466.4	455.0	427.8	393.8	368.6	320.1	286.7	275.4	260.9	245.6	231.4	219.6	222.4	233.3	211.9	148.4	113.7	71.54	50.86	47.00	115.3	454.5	1177	3214	5498	280.2	15.98	3.517	2.235	2.213	1.898	1.625	1.791	1.998	1.880	2.003	2.619	2.690	2.614	2.647	2.731	2.707	2.668	2.753	2.644	2.534	2.486	2.648	2.604	2.577	2.547	2.472	2.436	2.570	2.612	2.686	2.605	2.500	2.659	2.526	2.574	2.716
420.0	274.5	381.3	487.1	543.9	573.1	579.3	555.6	538.5	537.9	540.3	522.9	508.3	510.2	476.9	444.6	421.1	418.1	388.7	369.3	337.0	305.3	278.5	268.1	257.0	243.2	226.7	216.1	205.7	203.3	229.5	179.5	116.4	76.72	54.04	40.75	47.43	118.0	274.7	862.1	4039	4818	252.1	8.952	2.947	2.366	2.018	1.879	1.893	2.039	1.841	1.981	2.450	2.384	2.520	2.732	2.624	2.500	2.543	2.869	2.152	2.532	2.471	2.487	2.456	2.456	2.420	2.353	2.140	2.364	2.682	2.525	2.524	2.319	2.517	2.497	2.518	2.405
425.0	241.8	380.3	458.1	511.8	541.3	544.9	538.7	532.4	521.8	514.9	507.5	484.2	485.1	452.4	411.3	390.1	385.1	362.0	339.8	318.9	288.4	269.1	257.7	249.7	237.6	226.8	216.4	201.7	186.1	206.1	213.3	139.0	83.49	58.48	41.75	35.51	44.47	75.00	204.2	1165	4517	2290	36.54	5.107	2.682	2.549	1.889	1.950	2.007	1.934	1.904	2.376	2.452	2.532	2.680	2.473	2.447	2.508	2.682	2.189	2.524	2.448	2.574	2.361	2.387	2.274	2.253	2.227	2.128	2.315	2.446	2.284	2.012	2.261	2.312	2.343	2.343
430.0	263.0	343.8	428.9	474.5	511.8	517.5	517.1	512.0	508.6	496.8	494.0	465.0	455.1	413.0	378.6	357.1	347.7	330.1	315.1	296.4	272.2	255.6	249.1	242.4	231.8	220.6	213.1	198.8	182.4	178.1	194.7	174.5	105.3	65.94	49.16	37.23	32.35	33.31	58.11	270.5	1254	2817	3134	881.7	14.21	3.040	2.126	2.175	1.929	1.740	1.792	2.246	2.265	2.268	2.348	2.450	2.408	2.502	2.474	2.443	2.494	2.394	2.342	2.273	2.280	2.125	2.127	2.148	2.114	2.100	2.174	2.080	1.988	2.036	1.954	2.208	2.125
435.0	436.3	327.7	396.2	455.2	486.7	486.9	500.6	496.7	502.2	486.2	478.8	444.9	419.8	382.6	348.1	325.3	314.1	302.5	288.0	275.9	256.4	242.5	234.8	231.6	223.0	215.4	208.6	195.0	181.3	169.7	163.3	166.9	141.8	83.29	57.10	42.56	33.34	27.43	27.78	71.55	288.6	656.8	2007	4552	1359	18.17	3.045	2.340	2.226	1.820	1.736	2.115	2.255	2.287	2.230	2.306	2.375	2.499	2.512	2.420	2.458	2.437	2.192	2.434	2.346	2.228	2.213	2.098	1.896	1.961	1.940	1.943	1.899	1.929	1.830	1.896	1.779
440.0	681.1	365.7	383.2	432.3	462.4	469.5	476.7	482.4	485.1	470.8	464.2	429.5	397.4	366.8	331.2	306.8	292.7	281.4	271.9	258.3	242.4	229.1	225.3	222.9	213.8	208.5	201.5	192.1	180.9	167.0	154.7	145.0	149.2	109.9	65.71	46.66	36.47	28.05	23.46	28.60	74.57	155.3	516.8	2967	4390	247.9	10.48	2.679	2.397	1.987	1.951	2.051	2.057	2.280	2.228	2.442	2.322	2.338	2.468	2.323	2.261	2.478	2.457	2.359	2.155	2.122	2.038	2.163	1.809	1.932	1.881	1.780	1.963	1.911	1.671	2.006	1.781
445.0	745.2	566.4	345.1	405.3	439.9	455.3	461.2	473.1	474.5	466.6	443.7	411.0	377.6	342.9	311.6	289.0	277.8	265.5	255.2	241.4	226.7	219.6	215.3	212.2	206.4	201.2	192.9	187.9	176.4	165.4	151.2	132.8	130.5	128.0	80.34	51.94	39.29	30.60	24.25	20.57	27.55	43.76	123.9	812.1	3513	3714	191.0	6.376	2.751	2.155	2.061	2.153	2.005	2.209	2.202	2.150	2.285	2.346	2.317	2.344	2.374	2.465	2.379	2.285	2.199	1.967	2.074	2.160	1.875	1.724	1.825	1.871	1.689	1.650	1.695	1.912	1.661
450.0	514.6	1139	502.3	377.5	401.3	421.2	436.2	449.8	449.7	444.9	424.9	393.0	357.8	320.0	290.7	263.7	252.0	237.9	230.9	219.7	208.4	203.1	201.5	198.6	192.4	189.0	184.8	179.8	171.1	160.2	147.3	126.6	111.3	113.6	101.4	65.55	42.96	33.05	25.96	20.85	18.70	20.20	36.16	188.9	936.9	2700	2608	830.0	13.44	2.728	2.310	2.227	2.095	2.221	2.231	2.150	2.116	2.165	2.091	2.299	2.130	2.263	2.200	2.213	2.036	1.961	1.944	1.810	1.795	1.714	1.758	1.602	1.648	1.643	1.603	1.616	1.559
455.0	271.7	1277	1169	368.2	352.0	377.1	400.6	410.3	426.0	413.0	398.6	369.6	332.1	290.7	264.8	238.5	224.8	216.0	208.7	196.2	186.6	184.6	184.3	180.2	176.7	176.3	170.8	169.4	161.5	152.5	141.5	122.1	104.5	91.96	94.40	85.54	53.61	36.37	28.13	22.09	18.26	15.95	17.09	49.90	215.2	618.6	1368	3514	1222	17.19	2.907	2.369	2.241	2.294	2.192	2.063	2.116	1.977	1.980	2.149	2.001	2.150	2.004	2.018	1.973	1.811	1.864	1.794	1.539	1.485	1.454	1.523	1.339	1.536	1.344	1.478	1.496
460.0	183.7	825.1	2113	535.8	330.0	360.6	382.4	394.1	396.1	392.6	378.9	340.3	306.7	271.9	244.8	218.7	207.0	195.6	189.8	180.1	173.0	171.2	169.7	166.9	164.6	162.9	161.2	158.1	151.9	143.5	135.5	118.8	99.14	85.40	78.48	86.40	67.54	40.68	29.51	24.08	19.58	15.63	13.34	19.26	54.75	143.8	337.4	1981	3347	197.2	12.23	3.040	2.414	2.330	2.059	1.854	2.286	1.920	2.035	1.997	2.037	2.108	1.926	1.827	1.965	1.642	1.662	1.752	1.492	1.380	1.394	1.433	1.294	1.290	1.299	1.350	1.229
465.0	145.1	427.2	2423	904.7	316.4	338.4	354.5	371.7	374.8	371.4	355.6	322.1	285.8	257.1	225.2	203.9	191.4	179.4	174.4	166.1	161.0	155.8	156.2	154.3	151.8	151.7	150.5	146.5	144.4	136.8	126.4	112.3	96.24	81.90	71.64	72.77	75.15	48.83	30.54	24.29	20.18	16.31	13.48	12.88	19.24	38.11	81.21	517.6	2382	2654	179.4	8.061	2.629	2.470	2.229	2.063	2.113	1.922	2.077	1.829	1.971	2.046	1.880	2.036	1.838	1.540	1.631	1.624	1.614	1.391	1.299	1.190	1.341	1.282	1.284	1.265	1.230
470.0	153.6	238.1	1423	2456	528.0	305.2	323.0	338.7	343.4	341.8	321.7	292.7	261.3	231.9	202.2	183.4	171.2	161.2	153.5	146.8	142.5	138.3	137.9	136.4	137.5	135.8	134.4	133.0	131.3	124.2	116.4	103.9	89.91	77.49	65.32	59.06	63.44	57.80	37.94	26.19	20.43	16.87	14.17	11.77	11.91	14.99	23.77	120.9	613.8	1689	1820	827.8	14.02	2.763	2.390	2.169	2.054	1.851	1.963	1.754	1.905	1.806	1.778	1.717	1.589	1.525	1.563	1.484	1.319	1.360	1.189	1.145	1.260	1.237	1.077	1.185	1.046
475.0	173.7	177.1	519.3	2671	1666	304.3	286.8	308.2	309.1	302.5	290.2	262.0	232.3	207.0	179.0	161.3	152.8	141.4	134.8	130.2	123.5	122.3	122.4	121.6	121.1	119.5	120.4	119.7	116.6	112.2	105.1	95.55	83.82	72.08	60.94	52.24	48.22	52.24	49.59	30.57	20.82	17.26	14.52	11.75	10.79	9.865	10.94	31.80	141.0	384.0	835.5	2266	1014	20.24	2.947	2.171	2.058	1.891	1.708	1.622	1.489	1.670	1.689	1.651	1.596	1.474	1.232	1.188	1.283	1.306	1.123	1.083	1.015	1.048	0.907	0.992	1.064
480.0	165.9	178.8	259.3	1625	2849	494.2	268.4	286.2	283.7	280.1	271.0	241.9	215.7	190.7	164.5	148.9	138.7	130.2	123.7	117.4	116.2	112.8	111.5	112.0	110.7	108.8	109.4	107.1	106.6	104.0	98.56	89.73	78.24	67.70	56.98	49.32	43.55	42.68	48.74	37.65	22.77	17.83	14.73	12.22	10.60	9.336	7.886	11.97	35.53	89.56	200.9	1137	2317	233.6	13.63	2.488	2.021	1.834	1.780	1.584	1.341	1.595	1.535	1.611	1.550	1.232	1.287	1.178	1.165	1.082	1.044	0.983	1.058	1.067	0.988	0.900	1.033
485.0	147.3	201.4	187.6	724.0	3154	1255	261.5	265.8	274.4	267.1	253.1	228.1	205.0	176.4	153.1	135.8	127.1	119.4	115.7	107.4	108.0	103.1	103.0	102.3	102.7	101.9	101.4	101.8	100.4	98.89	92.10	83.74	74.05	63.82	55.49	47.49	40.89	37.66	41.48	42.38	27.48	18.32	14.87	13.01	10.90	9.538	8.186	8.043	12.69	23.89	48.59	290.5	1500	1861	203.5	7.229	2.318	1.900	1.792	1.717	1.509	1.493	1.464	1.570	1.389	1.229	1.315	1.247	1.296	0.942	0.970	0.897	0.960	0.865	0.871	0.871	1.007
490.0	108.2	210.5	184.0	309.8	1817	2839	579.3	245.8	249.4	242.5	233.0	211.2	184.6	161.4	142.7	125.7	116.5	107.5	102.7	98.82	96.38	93.90	92.67	92.20	93.07	92.39	91.75	91.79	91.94	90.07	85.40	77.10	68.13	60.10	52.05	44.62	38.64	34.71	32.87	36.99	34.94	23.46	16.03	13.06	11.49	9.971	8.288	7.320	7.487	9.144	14.33	68.31	378.3	1135	1761	823.2	16.14	2.411	1.910	1.713	1.528	1.431	1.369	1.358	1.324	1.193	1.232	1.020	1.142	0.912	0.973	0.838	0.887	0.835	0.837	0.780	0.797
495.0	78.33	185.7	199.0	202.9	614.0	3045	1935	251.9	228.2	223.3	212.0	195.6	168.0	145.0	129.3	111.7	103.8	98.26	92.21	86.87	83.94	83.93	82.58	81.05	82.77	82.34	82.13	81.58	81.64	80.02	76.73	69.54	62.78	55.47	47.95	40.89	36.20	31.71	28.49	28.46	32.90	30.44	18.57	13.54	11.26	10.56	8.254	7.593	6.717	6.331	6.635	18.71	87.12	258.4	748.8	2062	1110	22.55	2.314	1.782	1.541	1.421	1.345	1.138	1.278	1.105	1.224	0.951	1.014	0.792	0.933	0.774	0.829	0.700	0.800	0.718	0.771
500.0	69.05	154.9	232.2	164.8	264.1	1890	3517	383.4	204.7	201.7	189.8	178.2	154.1	134.7	118.5	102.5	94.08	87.83	82.69	79.38	74.79	74.18	73.69	74.41	73.35	74.97	73.43	73.49	75.10	73.41	69.79	63.89	58.12	50.95	44.89	38.72	34.54	30.69	26.51	24.28	25.84	30.38	23.19	14.65	11.60	9.976	8.639	7.456	6.729	5.696	5.182	7.486	22.29	60.38	178.2	974.3	2161	252.4	15.76	1.843	1.689	1.521	1.424	1.256	1.223	1.135	1.162	0.818	0.876	0.859	0.801	0.772	0.718	0.792	0.730	0.748	0.669
505.0	63.46	109.2	218.6	178.0	169.4	803.4	4255	1190	197.6	188.6	179.4	163.6	144.1	123.8	108.0	93.46	85.25	80.48	76.30	72.67	68.96	68.12	66.94	67.21	66.75	67.12	65.00	68.02	67.67	66.62	63.04	59.21	54.57	47.31	41.03	36.64	32.50	28.51	25.35	22.23	21.66	26.01	27.09	16.99	11.63	9.913	8.468	7.148	6.749	5.688	4.873	4.695	7.727	16.07	42.63	242.0	1250	1909	227.6	8.612	1.838	1.607	1.339	1.287	1.205	0.912	1.133	0.781	0.992	0.756	0.783	0.717	0.632	0.654	0.751	0.723	0.639
510.0	55.69	82.38	167.4	203.8	144.2	297.8	2582	3102	445.1	169.2	160.0	144.5	128.5	109.9	94.69	83.36	75.27	70.33	67.08	63.85	60.97	59.87	59.34	59.21	59.45	59.14	58.00	59.19	59.42	58.25	56.99	52.12	47.61	41.91	37.15	32.37	29.39	25.67	22.97	20.45	18.42	19.26	23.02	21.28	14.53	9.854	8.353	7.231	6.418	5.622	5.185	4.265	4.471	6.062	11.85	56.29	308.4	1006	1455	701.4	16.57	2.008	1.405	1.158	1.124	0.919	0.980	0.793	0.821	0.743	0.681	0.677	0.570	0.590	0.656	0.590	0.533
515.0	48.81	73.69	117.6	198.8	150.8	159.4	800.5	3712	1689	172.2	141.7	130.0	115.7	98.73	82.58	74.47	66.40	61.47	57.59	54.79	54.01	51.95	51.23	51.07	50.94	50.61	49.80	51.15	51.72	50.88	48.71	44.91	41.10	36.92	32.46	29.35	25.37	23.10	20.40	18.07	16.20	15.48	15.88	19.56	18.68	11.42	8.263	6.953	5.975	5.442	4.999	4.403	4.072	3.796	4.995	14.56	70.68	227.4	538.1	1524	891.6	23.48	1.645	1.296	1.021	1.036	1.002	0.646	0.718	0.717	0.608	0.503	0.462	0.522	0.573	0.505	0.515
520.0	52.00	65.54	88.80	176.1	173.4	120.7	277.4	2428	3385	281.5	125.0	115.4	102.7	87.29	75.63	66.98	59.50	55.78	51.02	49.35	47.83	44.90	46.46	45.94	45.50	45.60	44.72	45.89	45.68	45.18	43.82	40.62	36.29	32.77	29.46	26.83	23.41	21.16	19.19	16.96	15.34	14.12	12.70	15.96	18.68	13.91	8.519	6.819	5.602	5.020	4.477	4.460	3.836	3.214	3.257	5.046	17.71	52.70	126.7	688.8	1579	254.3	15.04	1.284	1.032	0.991	0.733	0.729	0.617	0.669	0.581	0.474	0.526	0.539	0.496	0.455	0.383
525.0	44.67	51.68	73.36	130.5	190.9	119.7	148.7	997.8	4401	1053	116.7	104.5	92.67	77.96	67.59	59.99	52.51	50.63	46.65	45.84	42.68	40.43	40.98	40.34	40.45	41.38	40.54	41.04	40.73	39.69	39.78	37.05	34.46	29.98	27.11	24.90	21.88	19.69	17.92	15.83	13.63	12.68	11.26	11.97	15.77	15.95	10.14	6.898	5.654	4.838	4.270	4.049	3.965	3.547	2.780	2.902	5.681	13.57	30.17	168.4	853.8	1442	222.3	6.397	1.342	1.023	0.822	0.696	0.678	0.640	0.556	0.449	0.483	0.483	0.474	0.431	0.475
530.0	39.37	47.04	58.72	84.90	178.6	137.0	107.9	319.2	2880	3157	320.8	95.34	81.88	69.86	58.69	52.83	46.78	44.03	41.28	39.74	36.83	35.67	35.63	35.36	35.17	35.33	35.32	34.96	35.50	35.36	34.11	32.52	29.21	26.16	24.06	21.21	18.94	17.55	15.83	14.43	12.57	11.32	10.51	9.800	11.34	14.41	12.61	7.924	5.424	4.586	3.969	3.750	3.648	3.607	3.104	2.486	3.065	4.637	8.413	39.23	209.5	722.0	1050	458.5	15.47	1.348	0.953	0.780	0.690	0.590	0.466	0.508	0.453	0.411	0.373	0.391	0.448
535.0	31.61	49.54	49.30	64.77	121.5	173.7	97.69	138.2	888.5	4477	1443	93.47	71.32	59.58	51.89	45.60	40.60	37.86	35.54	32.74	31.80	30.82	30.54	29.89	29.68	30.27	30.45	30.05	29.78	30.29	28.85	27.41	24.87	22.12	20.46	18.28	16.74	15.58	13.77	13.06	11.12	10.18	8.963	8.794	8.555	9.895	12.14	9.908	6.002	4.329	3.884	3.537	3.156	3.355	3.113	2.732	2.418	2.762	3.243	10.12	47.92	163.1	373.4	1051	664.6	20.49	1.164	0.810	0.628	0.638	0.497	0.405	0.446	0.471	0.442	0.280	0.359
540.0	26.67	43.88	47.88	58.06	82.08	168.6	106.6	90.77	270.9	3053	3280	180.1	64.51	53.62	47.52	41.07	35.62	33.14	32.16	28.98	28.22	27.73	26.97	27.11	27.11	26.39	26.56	26.48	26.16	26.64	25.27	24.32	21.65	19.84	18.08	16.34	15.48	14.10	12.30	11.21	9.815	9.118	8.123	7.767	7.356	7.341	9.567	10.29	7.602	4.353	3.386	3.320	2.818	2.815	3.063	2.827	2.327	1.996	2.211	3.655	11.95	37.71	87.21	455.9	1137	248.2	12.34	1.012	0.772	0.692	0.481	0.439	0.430	0.230	0.344	0.306	0.265
545.0	24.66	42.43	41.73	47.97	62.67	143.3	124.5	76.06	120.1	1218	4517	699.8	61.17	48.52	40.39	36.62	30.85	30.31	28.30	24.99	25.09	23.88	23.93	23.63	23.38	23.22	23.15	23.50	22.97	22.87	23.15	20.46	19.72	17.38	16.22	14.76	13.54	12.37	11.26	10.23	9.276	8.405	7.486	6.959	6.953	6.311	7.071	9.552	8.568	5.031	3.309	3.133	2.584	2.450	2.631	2.695	2.625	1.991	1.680	1.928	3.834	9.545	20.60	110.0	590.3	924.7	202.3	4.891	0.862	0.694	0.403	0.372	0.426	0.261	0.282	0.190	0.256
550.0	35.58	43.53	44.32	44.15	48.58	85.67	148.2	81.10	76.01	349.1	2983	2638	128.3	41.38	34.94	31.65	26.84	25.15	23.92	22.48	20.78	20.06	20.33	20.55	19.44	19.22	19.36	19.53	19.44	19.26	18.88	17.54	15.94	14.68	13.54	11.96	11.13	10.39	9.529	8.571	8.049	7.151	6.418	6.249	5.622	5.315	5.238	6.465	7.817	6.224	3.853	2.741	2.472	2.228	2.127	2.149	2.411	2.172	1.571	1.394	1.838	3.060	5.513	25.52	142.8	435.9	685.2	314.3	14.35	0.880	0.477	0.422	0.361	0.389	0.357	0.219	0.282
555.0	30.01	42.05	45.24	40.97	35.01	50.23	126.3	101.1	61.86	121.0	883.1	4167	963.2	40.21	29.01	25.13	23.36	20.59	19.46	19.00	16.84	17.18	15.97	16.12	16.18	15.71	15.65	15.64	15.91	15.02	15.10	14.01	12.96	11.84	10.56	9.721	8.905	8.512	7.850	7.420	6.465	6.148	5.529	5.313	4.789	4.524	4.224	4.255	5.396	6.200	5.004	3.069	2.096	1.897	1.915	1.722	1.851	2.025	1.617	1.192	1.311	1.577	1.998	6.533	32.66	98.37	230.3	662.3	261.9	18.98	0.691	0.354	0.354	0.398	0.274	0.232	0.238
560.0	27.93	41.79	38.99	37.04	30.36	37.33	86.54	127.9	58.58	68.46	247.5	2962	2668	93.06	26.19	22.07	21.00	17.87	16.74	15.12	14.35	14.17	13.84	13.31	13.33	13.56	13.04	13.21	13.04	12.63	12.53	11.52	11.29	10.33	9.181	8.429	7.820	6.959	6.675	6.402	5.605	5.446	4.811	4.197	3.931	4.067	3.502	3.285	3.560	5.102	5.277	3.710	2.026	1.622	1.627	1.621	1.509	1.544	1.771	1.439	1.145	0.995	1.130	2.108	7.976	22.68	53.35	275.8	625.4	227.5	10.04	0.481	0.575	0.384	0.249	0.287	0.176
565.0	29.52	43.04	37.04	33.81	33.67	31.85	54.47	133.3	68.44	55.85	94.14	1195	4178	408.7	24.38	20.16	18.73	15.43	13.83	13.08	12.59	12.20	11.67	11.42	11.78	11.83	11.16	11.22	11.07	11.07	10.56	9.805	9.552	8.623	8.125	7.299	6.955	5.821	5.681	5.328	4.670	4.565	4.082	3.763	3.756	3.559	3.017	2.815	2.798	3.468	4.667	4.034	2.121	1.755	1.526	1.435	1.447	1.236	1.459	1.714	1.283	0.890	0.889	1.122	2.438	5.657	12.68	65.89	312.3	588.1	158.8	3.615	0.487	0.404	0.318	0.233	0.241
570.0	39.54	43.28	42.83	34.32	27.66	29.65	36.45	98.77	99.70	51.39	58.01	330.9	2982	1931	72.61	17.63	14.88	12.75	11.77	11.31	10.87	10.08	9.648	9.698	9.232	9.368	9.065	8.872	8.817	9.017	8.836	8.376	7.495	7.190	6.537	5.957	5.592	4.803	4.884	4.163	3.853	3.888	3.373	3.261	3.136	2.808	2.676	2.326	2.209	2.288	3.026	3.822	2.780	1.795	1.417	1.103	1.078	1.134	1.095	1.320	1.451	0.937	0.758	0.733	1.134	1.781	3.400	15.31	74.32	256.6	396.1	149.7	13.20	0.456	0.371	0.276	0.225
575.0	38.04	46.80	43.46	34.03	24.56	24.76	28.99	53.54	127.2	64.94	51.56	110.5	886.2	3289	610.0	16.97	12.73	11.98	9.583	8.477	8.970	7.995	8.121	7.566	7.119	7.342	7.317	7.166	7.066	6.966	7.013	6.750	6.053	5.529	5.114	4.621	4.354	3.980	3.671	3.195	3.312	3.175	2.565	2.751	2.421	2.305	2.011	2.003	1.805	1.730	1.999	2.488	2.873	2.061	1.261	1.009	0.946	0.896	0.790	0.909	1.151	1.257	0.827	0.698	0.719	1.020	1.297	3.941	17.08	57.83	124.6	358.7	235.0	15.67	0.549	0.325	0.229
580.0	30.75	45.83	45.80	31.81	24.02	23.00	25.49	36.83	112.2	86.65	54.07	65.41	246.6	2432	1811	41.91	11.52	9.854	8.702	7.680	8.098	7.110	6.583	6.429	6.336	6.634	6.139	6.024	6.055	6.030	6.439	5.556	5.310	4.333	4.190	3.832	3.422	3.387	3.389	2.805	2.648	2.524	2.270	2.239	2.241	2.048	1.862	1.784	1.716	1.383	1.512	1.792	2.587	2.748	1.581	0.925	0.944	0.820	0.709	0.777	0.861	1.173	1.270	0.753	0.600	0.705	0.873	1.372	4.281	13.30	28.83	142.0	387.5	174.3	7.297	0.378	0.263
585.0	41.50	48.59	48.27	29.05	21.65	18.44	24.09	29.88	83.85	113.8	57.76	57.03	91.51	994.7	2927	114.0	10.87	8.412	8.097	7.075	6.482	5.995	6.094	5.961	5.222	5.397	5.098	5.006	5.245	5.367	4.795	4.633	4.637	3.945	3.726	3.395	3.081	2.930	2.844	2.627	2.365	2.173	1.970	1.843	1.829	1.836	1.613	1.572	1.402	1.318	1.237	1.354	1.824	2.299	1.743	1.327	0.783	0.694	0.734	0.723	0.677	0.897	1.339	0.820	0.627	0.571	0.641	0.669	1.465	3.363	6.875	33.65	181.4	360.0	36.38	2.516	0.239
590.0	42.63	52.32	45.95	30.95	20.74	18.17	21.70	28.20	53.40	116.8	78.86	57.93	56.45	268.8	2106	1241	38.23	7.931	6.592	6.224	5.697	4.944	4.864	4.949	4.525	4.484	4.428	4.140	4.291	4.223	3.990	4.052	3.465	3.363	3.341	2.862	2.655	2.428	2.279	2.212	1.972	1.889	1.679	1.622	1.552	1.521	1.439	1.329	1.241	1.175	0.973	1.000	1.154	1.637	1.823	1.338	0.772	0.708	0.561	0.608	0.611	0.656	0.960	1.014	0.872	0.580	0.572	0.520	0.670	1.181	1.942	7.833	42.91	150.7	225.5	125.1	11.30
595.0	34.00	45.77	43.76	31.98	19.56	15.28	20.16	23.64	39.92	85.78	107.0	60.44	47.94	81.82	624.4	2260	339.6	8.207	6.100	5.407	4.755	4.476	4.146	3.690	3.994	3.488	3.650	3.450	3.695	3.252	3.171	3.137	2.858	2.527	2.513	2.429	2.200	1.992	2.043	1.815	1.622	1.461	1.457	1.319	1.282	1.206	1.249	0.993	1.036	0.949	0.796	0.747	0.751	0.961	1.409	1.484	1.050	0.622	0.514	0.642	0.491	0.531	0.581	0.803	1.009	0.643	0.487	0.511	0.411	0.667	0.869	2.078	9.866	34.01	69.63	214.9	161.3
600.0	42.20	41.03	41.99	31.01	19.88	16.64	18.36	24.15	35.37	64.18	122.7	67.74	46.66	39.93	162.6	1734	813.5	20.93	6.000	4.795	3.926	4.041	3.798	3.063	3.065	2.798	3.098	2.953	3.030	2.860	2.736	2.661	2.550	2.501	1.971	1.916	1.772	1.616	1.781	1.433	1.502	1.196	1.224	1.072	1.098	1.045	1.008	0.963	0.927	0.800	0.648	0.660	0.703	0.686	1.016	1.362	1.166	0.676	0.571	0.578	0.410	0.505	0.527	0.528	0.880	0.828	0.504	0.536	0.476	0.430	0.489	0.857	2.454	7.925	15.97	80.67	224.9
605.0	41.38	44.61	39.29	28.65	17.80	17.80	17.94	23.47	31.41	48.53	114.4	80.43	46.95	29.44	48.48	720.2	1867	79.80	5.242	4.367	3.824	3.762	3.311	2.718	2.848	2.593	2.679	2.573	2.628	2.782	2.334	2.352	2.099	1.818	1.717	1.527	1.616	1.524	1.410	1.288	1.314	1.127	1.034	1.039	0.994	0.854	0.948	0.871	0.817	0.718	0.640	0.539	0.622	0.527	0.654	0.934	1.270	0.888	0.539	0.492	0.425	0.397	0.419	0.451	0.661	0.858	0.772	0.543	0.379	0.402	0.401	0.429	0.774	1.981	3.765	18.91	97.08
610.0	36.85	41.22	38.08	24.77	17.31	15.06	18.99	22.84	31.55	41.56	82.73	100.1	50.30	27.14	22.37	187.7	1473	854.2	22.90	4.403	3.284	3.281	2.810	2.462	2.556	2.212	2.151	2.051	2.164	2.208	1.901	1.944	1.680	1.677	1.575	1.515	1.375	1.257	1.077	1.026	1.014	0.893	0.803	0.976	0.804	0.697	0.785	0.742	0.650	0.563	0.562	0.614	0.474	0.441	0.434	0.652	0.910	0.859	0.724	0.474	0.413	0.424	0.377	0.413	0.458	0.549	0.791	0.637	0.487	0.460	0.322	0.261	0.372	0.610	1.003	4.440	22.76
615.0	26.23	34.42	33.69	26.59	14.57	14.29	17.66	21.07	28.07	38.88	59.28	99.78	61.51	27.15	16.00	50.25	446.6	1609	222.8	4.307	3.550	2.632	2.485	2.155	2.192	1.828	1.795	1.726	1.939	1.608	1.622	1.436	1.512	1.220	1.364	1.134	0.980	1.034	0.730	0.828	0.744	0.706	0.774	0.695	0.606	0.660	0.666	0.598	0.636	0.464	0.516	0.518	0.426	0.401	0.403	0.379	0.584	0.822	0.844	0.612	0.424	0.414	0.378	0.319	0.424	0.408	0.529	0.640	0.622	0.352	0.313	0.228	0.292	0.328	0.390	1.205	5.205
620.0	28.57	32.22	29.69	25.31	13.88	13.27	16.35	20.17	26.30	36.57	51.32	80.35	76.01	26.75	15.41	18.53	114.8	1260	629.2	12.01	3.614	2.562	2.180	2.106	1.964	1.719	1.492	1.619	1.538	1.565	1.538	1.316	1.187	1.002	1.072	0.927	0.954	0.934	0.800	0.638	0.602	0.611	0.598	0.725	0.577	0.608	0.544	0.586	0.524	0.452	0.395	0.456	0.396	0.395	0.447	0.311	0.370	0.613	0.812	0.666	0.407	0.300	0.349	0.383	0.337	0.363	0.331	0.550	0.599	0.386	0.343	0.287	0.247	0.209	0.263	0.432	1.269
625.0	22.77	32.28	34.26	22.18	14.04	15.22	15.72	20.86	26.25	35.32	47.49	63.07	82.05	30.19	15.54	12.47	33.89	538.2	1390	58.63	3.720	2.520	2.104	1.656	1.475	1.508	1.241	1.498	1.340	1.369	1.383	1.213	1.030	0.887	0.881	0.727	0.736	0.851	0.628	0.803	0.637	0.568	0.526	0.549	0.549	0.523	0.460	0.389	0.440	0.368	0.336	0.322	0.352	0.347	0.341	0.275	0.265	0.402	0.622	0.662	0.413	0.389	0.363	0.384	0.356	0.332	0.342	0.401	0.502	0.602	0.327	0.233	0.203	0.233	0.211	0.267	0.463
630.0	25.49	30.14	27.95	21.00	16.49	16.95	15.99	18.63	25.02	33.12	43.39	50.34	72.82	46.61	19.62	15.88	19.24	144.4	1133	633.1	14.47	2.676	1.911	1.770	1.542	1.323	1.114	1.258	1.157	1.174	1.031	0.972	0.873	0.799	0.829	0.628	0.642	0.693	0.480	0.596	0.551	0.424	0.410	0.468	0.447	0.400	0.381	0.381	0.401	0.333	0.273	0.295	0.283	0.314	0.256	0.305	0.224	0.277	0.440	0.464	0.499	0.373	0.359	0.299	0.354	0.359	0.359	0.345	0.355	0.421	0.414	0.348	0.215	0.234	0.166	0.292	0.181
635.0	21.41	39.29	28.52	23.46	22.74	23.95	23.02	20.02	27.07	34.93	45.54	50.11	59.64	69.64	35.79	28.27	28.59	52.97	360.9	1253	67.82	3.230	2.155	1.783	1.491	1.229	1.077	1.065	0.846	0.949	0.816	0.837	0.748	0.689	0.701	0.592	0.527	0.474	0.391	0.420	0.401	0.344	0.358	0.400	0.319	0.316	0.345	0.363	0.349	0.313	0.272	0.306	0.336	0.245	0.219	0.276	0.327	0.277	0.242	0.334	0.473	0.404	0.376	0.178	0.298	0.328	0.293	0.365	0.281	0.334	0.420	0.473	0.347	0.269	0.263	0.270	0.311
640.0	24.53	43.93	34.83	32.37	28.04	32.73	27.92	25.44	28.70	38.51	49.74	53.54	61.93	80.67	53.38	43.31	42.68	40.97	109.6	1027	481.5	7.980	2.196	1.828	1.536	1.165	1.032	1.098	0.777	1.007	0.768	0.651	0.851	0.480	0.554	0.468	0.511	0.471	0.380	0.405	0.386	0.297	0.291	0.352	0.306	0.340	0.312	0.397	0.307	0.327	0.241	0.236	0.297	0.321	0.270	0.242	0.335	0.233	0.262	0.299	0.301	0.365	0.425	0.354	0.300	0.349	0.299	0.291	0.392	0.309	0.381	0.491	0.538	0.355	0.340	0.331	0.256
645.0	26.60	40.75	42.06	41.08	38.47	37.60	31.42	29.06	33.82	41.60	54.52	60.71	63.75	80.69	74.94	57.74	54.67	46.73	54.84	470.4	1035	44.67	2.258	1.502	1.192	1.146	1.062	0.703	0.668	0.878	0.733	0.604	0.656	0.541	0.669	0.487	0.661	0.422	0.449	0.369	0.354	0.333	0.328	0.296	0.254	0.231	0.339	0.406	0.366	0.297	0.222	0.229	0.259	0.301	0.370	0.223	0.283	0.145	0.186	0.306	0.229	0.338	0.334	0.364	0.281	0.242	0.345	0.373	0.312	0.398	0.378	0.460	0.671	0.374	0.436	0.327	0.346
650.0	25.65	48.07	50.09	42.77	40.45	36.61	33.19	30.09	34.33	43.08	53.70	62.19	64.89	76.41	87.78	64.85	60.29	51.82	43.54	154.5	1092	264.6	3.394	1.550	1.068	1.111	0.805	0.860	0.640	0.640	0.779	0.550	0.493	0.495	0.479	0.508	0.403	0.501	0.361	0.393	0.287	0.306	0.324	0.312	0.274	0.310	0.260	0.292	0.355	0.221	0.223	0.256	0.278	0.357	0.370	0.314	0.246	0.256	0.217	0.199	0.248	0.379	0.481	0.472	0.392	0.301	0.271	0.344	0.327	0.451	0.428	0.425	0.570	0.518	0.496	0.360	0.311
