Sample:	'1
File name:	Default_20231009_132231.FD3
Run date:	'13:16:10, 10/09/2023
Operator:	dsjg
Comment:	'

Instrument
Model:	F-2700 FL Spectrophotometer
Serial number:	2198-001
ROM Version:	4J14000 07

Instrument parameters
Measurement type:	3-D scan
Data mode:	Fluorescence
EX  Start WL:	220.0 nm
EX  End WL:	600.0 nm
EX Sampling interval:	5.0 nm
EM  Start WL:	230.0 nm
EM  End WL:	650.0 nm
EM Sampling interval:	5.0 nm
Scan speed:	12000 nm/min
EX Slit:	5.0 nm
EM Slit:	5.0 nm
PMT Voltage:	700 V
Response:	Auto 
Corrected spectra:	Off
Contour interval:	50.000

Peak integration
Integration method:	Rectangular
Sensitivity:	1
Threshold:	1.000

Peaks
No.	ApexEX/EM(nm)	Height(Data)
1	225.0/335.0	923.4
2	235.0/425.0	402.5
3	245.0/440.0	404.7
4	265.0/585.0	46.32
5	270.0/440.0	413.8
6	270.0/600.0	44.19
7	275.0/340.0	 1010
8	275.0/615.0	44.06
9	280.0/620.0	43.21
10	315.0/355.0	181.6
11	320.0/360.0	194.9
12	325.0/370.0	191.5
13	330.0/375.0	192.9
14	335.0/380.0	200.3
15	350.0/400.0	179.7
16	355.0/405.0	171.0
17	360.0/415.0	166.2
18	365.0/420.0	169.2
19	455.0/340.0	3.580
20	535.0/270.0	46.84
21	555.0/335.0	6.130
22	560.0/340.0	6.078

Data points
	220.0	225.0	230.0	235.0	240.0	245.0	250.0	255.0	260.0	265.0	270.0	275.0	280.0	285.0	290.0	295.0	300.0	305.0	310.0	315.0	320.0	325.0	330.0	335.0	340.0	345.0	350.0	355.0	360.0	365.0	370.0	375.0	380.0	385.0	390.0	395.0	400.0	405.0	410.0	415.0	420.0	425.0	430.0	435.0	440.0	445.0	450.0	455.0	460.0	465.0	470.0	475.0	480.0	485.0	490.0	495.0	500.0	505.0	510.0	515.0	520.0	525.0	530.0	535.0	540.0	545.0	550.0	555.0	560.0	565.0	570.0	575.0	580.0	585.0	590.0	595.0	600.0
230.0	256.9	 3217	 4235	610.7	23.35	11.84	10.03	8.127	6.872	6.221	5.783	5.192	4.293	3.930	3.097	2.751	2.522	2.281	2.165	1.988	1.839	1.854	1.704	1.645	1.514	1.551	1.476	1.476	1.440	1.414	1.422	1.338	1.278	1.184	1.214	1.163	1.186	1.174	1.052	1.034	0.952	1.088	1.142	0.979	0.915	0.916	1.979	8.804	18.62	16.53	6.977	1.597	0.735	0.706	0.636	0.675	0.702	0.686	0.664	0.658	0.636	0.644	0.629	0.649	0.663	0.639	0.628	0.632	0.627	0.631	0.649	0.647	0.645	0.637	0.661	0.655	0.712
235.0	119.5	995.8	 3599	 4006	406.3	26.99	11.39	8.348	8.412	6.759	5.752	5.457	4.202	3.987	3.316	3.029	2.701	2.362	2.039	2.082	1.852	1.733	1.824	1.579	1.509	1.512	1.520	1.456	1.460	1.469	1.400	1.367	1.294	1.199	1.149	1.240	1.220	1.201	1.061	1.110	0.987	1.057	1.059	1.084	1.034	0.996	1.079	2.673	6.451	12.02	17.53	20.08	10.01	2.406	0.736	0.696	0.780	0.766	0.672	0.764	0.630	0.716	0.649	0.589	0.701	0.610	0.693	0.593	0.683	0.598	0.685	0.703	0.674	0.574	0.723	0.650	0.749
240.0	129.6	273.5	 1334	 4539	 3312	301.5	16.63	9.744	9.374	7.609	5.628	5.925	4.489	3.996	3.258	3.188	2.724	2.467	2.094	2.128	1.929	1.774	1.653	1.627	1.536	1.509	1.440	1.551	1.404	1.481	1.464	1.411	1.352	1.152	1.241	1.195	1.135	1.080	1.080	1.062	1.022	1.010	0.969	0.914	1.051	1.162	1.018	1.329	2.109	3.714	8.448	20.31	25.50	19.14	6.864	1.329	0.775	0.822	0.669	0.699	0.708	0.730	0.699	0.685	0.669	0.654	0.688	0.670	0.633	0.616	0.597	0.640	0.657	0.531	0.668	0.640	0.750
245.0	121.9	149.0	345.8	 2062	 5207	 2725	207.3	12.75	9.650	7.565	6.831	6.200	4.801	4.002	3.622	2.848	2.780	2.379	2.192	2.024	1.713	1.926	1.750	1.674	1.536	1.496	1.542	1.455	1.519	1.407	1.459	1.411	1.344	1.090	1.145	1.236	1.115	1.035	1.134	1.045	1.020	1.133	0.962	0.937	0.976	1.134	1.101	1.207	1.108	1.398	2.433	7.090	16.65	29.38	25.41	16.35	4.453	0.893	0.688	0.737	0.745	0.692	0.679	0.662	0.733	0.747	0.753	0.679	0.606	0.598	0.628	0.679	0.645	0.631	0.661	0.697	0.670
250.0	73.67	125.1	164.0	527.9	 2167	 4795	 4277	867.7	41.90	10.30	8.166	7.424	5.540	4.644	3.925	3.389	2.820	2.490	2.412	2.165	1.977	2.003	1.887	1.762	1.606	1.661	1.607	1.551	1.619	1.530	1.379	1.335	1.399	1.149	1.207	1.159	1.082	1.082	1.009	1.098	1.021	0.975	1.040	0.925	0.921	0.932	0.965	1.040	1.117	1.150	1.220	2.175	4.603	9.969	16.67	26.62	28.80	26.94	11.97	4.407	0.921	0.691	0.713	0.676	0.714	0.711	0.739	0.674	0.678	0.690	0.668	0.645	0.635	0.633	0.665	0.715	0.712
255.0	49.38	62.24	132.7	216.1	514.9	 1488	 5319	 6422	 1243	37.65	10.76	8.346	6.932	5.460	4.421	3.766	3.281	2.869	2.515	2.175	2.026	2.001	1.761	1.879	1.836	1.723	1.630	1.638	1.591	1.728	1.444	1.438	1.267	1.183	1.231	1.062	1.041	1.061	1.001	1.044	1.031	1.009	1.083	1.044	0.936	1.016	0.875	0.861	0.866	1.071	1.193	1.452	1.739	2.797	4.294	6.960	12.26	28.40	45.25	27.85	18.47	4.147	0.949	0.790	0.695	0.781	0.691	0.725	0.729	0.676	0.643	0.696	0.698	0.636	0.710	0.699	0.777
260.0	47.34	39.49	74.21	167.0	191.1	361.3	 2063	 6950	 6348	202.1	22.24	10.61	8.357	6.199	4.872	3.967	3.447	2.865	2.642	2.418	2.156	2.102	1.920	1.856	1.912	1.799	1.756	1.692	1.699	1.663	1.396	1.597	1.297	1.198	1.153	1.047	1.196	1.061	1.120	1.120	0.963	1.057	1.020	0.993	0.952	1.030	0.833	0.832	0.800	0.842	0.957	1.364	1.493	1.422	1.642	2.118	3.406	8.446	22.16	40.56	56.30	26.51	13.84	2.104	0.813	0.721	0.668	0.744	0.708	0.724	0.643	0.738	0.707	0.680	0.709	0.669	0.761
265.0	49.92	35.60	39.83	103.1	162.3	131.9	507.7	 3026	 8457	 5649	164.3	15.86	9.642	7.463	5.332	4.256	3.641	3.136	2.880	2.488	2.266	2.222	2.064	1.800	1.969	1.849	1.650	1.625	1.685	1.800	1.412	1.413	1.427	1.429	1.216	1.059	1.099	1.066	1.096	1.059	0.976	1.039	1.054	1.046	0.960	1.024	0.843	0.900	0.763	0.743	0.743	1.034	1.355	1.528	1.352	1.194	1.347	2.537	5.865	13.68	34.35	55.58	62.95	24.11	7.761	1.071	0.687	0.800	0.673	0.749	0.792	0.711	0.663	0.716	0.763	0.726	0.734
270.0	52.81	34.62	29.40	44.59	99.73	145.3	179.2	734.3	 3210	 7299	 7335	 2474	48.61	9.638	7.022	5.437	4.645	3.678	3.225	2.870	2.589	2.416	2.227	2.004	1.948	1.991	1.764	1.804	1.831	1.866	1.563	1.565	1.458	1.388	1.231	1.186	1.171	1.077	1.023	1.049	0.969	1.004	1.035	1.025	1.004	0.928	0.899	0.882	0.841	0.736	0.705	0.824	0.928	1.080	1.352	1.441	1.408	1.451	1.965	3.740	8.810	18.08	34.25	46.84	41.54	44.14	15.51	7.120	1.167	0.733	0.783	0.747	0.686	0.697	0.705	0.697	0.812
275.0	57.09	40.33	33.38	28.18	40.65	93.33	175.4	232.0	741.3	 2048	 6809	 9989	 1022	55.05	10.13	7.313	5.696	4.280	3.917	3.287	2.702	2.779	2.271	2.201	1.971	1.952	1.968	1.873	1.993	1.847	1.545	1.666	1.475	1.444	1.390	1.253	1.122	1.109	0.996	1.061	1.098	1.108	1.071	1.097	0.961	0.933	0.948	0.850	0.835	0.741	0.748	0.747	0.729	0.897	0.909	1.129	1.369	1.801	1.818	1.633	2.633	4.705	8.304	11.68	17.03	40.73	66.70	70.28	23.68	6.705	1.052	0.798	0.851	0.749	0.776	0.753	0.822
280.0	66.86	47.10	40.30	27.74	27.75	45.63	135.1	182.9	217.9	492.4	 2314	 9224	 8148	820.1	33.81	9.012	6.312	4.965	4.363	3.700	2.951	2.608	2.518	2.406	2.284	2.118	2.042	1.914	1.997	2.024	1.674	1.820	1.493	1.494	1.386	1.307	1.151	1.212	1.116	1.180	1.062	1.011	1.078	1.011	1.047	1.028	0.954	0.935	0.947	0.797	0.767	0.781	0.804	0.854	0.835	0.922	1.016	1.399	1.856	1.832	1.549	1.804	2.444	3.285	4.608	11.47	28.25	59.50	77.62	31.05	17.68	2.638	0.920	0.783	0.776	0.778	0.811
285.0	84.29	73.38	52.21	38.61	29.86	33.28	72.14	174.3	171.2	162.9	582.2	 3446	 9134	 6902	620.5	16.20	7.929	6.277	4.984	4.105	3.573	3.057	2.662	2.778	2.594	2.141	2.061	1.881	1.986	1.861	1.771	1.770	1.452	1.540	1.480	1.380	1.231	1.294	1.088	1.172	1.062	1.081	1.055	1.071	1.083	1.131	1.091	1.081	1.032	0.848	0.751	0.865	0.804	0.851	0.855	0.826	0.914	0.992	1.350	1.777	2.022	1.732	1.459	1.555	1.839	3.275	7.277	18.24	41.40	65.58	80.15	27.63	10.59	1.169	0.854	0.913	0.842
290.0	140.4	137.4	102.7	67.08	47.77	47.09	57.68	114.4	198.4	215.4	251.7	906.5	 3119	 6840	 7300	 2351	37.07	8.978	6.542	4.793	4.191	3.703	3.021	2.961	2.663	2.376	2.275	2.153	2.106	2.062	1.844	1.779	1.576	1.572	1.560	1.555	1.408	1.499	1.333	1.243	1.208	1.179	1.145	1.193	1.187	1.246	1.243	1.258	1.215	1.028	0.951	0.954	0.916	0.916	0.914	0.923	0.923	0.997	1.062	1.302	1.635	1.949	2.000	2.065	1.731	1.809	2.753	5.266	10.90	20.26	38.16	51.25	64.28	50.19	17.34	7.628	1.242
295.0	224.2	227.6	178.5	108.3	78.67	70.95	82.69	111.4	175.2	309.8	358.7	429.3	892.1	 1869	 4931	 9618	 3635	44.10	9.115	6.464	5.177	4.317	3.804	3.133	2.968	2.547	2.346	2.263	2.278	1.988	1.919	1.830	1.743	1.652	1.630	1.690	1.652	1.670	1.604	1.407	1.286	1.378	1.321	1.293	1.332	1.330	1.407	1.526	1.575	1.281	1.185	1.248	1.038	1.092	1.069	1.008	1.030	1.249	1.152	1.217	1.326	1.569	1.990	2.678	2.845	2.565	2.317	2.904	4.133	6.134	10.00	13.25	21.48	39.65	71.28	80.25	26.92
300.0	324.2	319.2	247.1	146.4	103.6	95.41	109.5	138.7	193.3	322.5	469.4	466.0	478.5	625.8	 1579	 6278	9999.9	531.8	29.65	8.570	6.498	5.069	4.265	3.438	3.278	2.802	2.691	2.286	2.337	2.071	2.147	1.933	1.797	1.693	1.829	1.876	1.827	1.773	1.659	1.681	1.474	1.568	1.437	1.429	1.571	1.606	1.671	1.677	1.707	1.403	1.297	1.268	1.225	1.206	1.193	1.092	1.146	1.343	1.295	1.380	1.398	1.772	1.930	2.462	2.927	3.479	3.312	2.936	2.885	3.409	4.198	4.614	6.283	11.60	28.82	62.35	97.59
305.0	389.3	403.6	316.9	185.3	130.0	119.3	138.9	176.5	239.4	346.2	509.8	606.4	498.5	413.1	526.7	 2062	 7320	 9401	454.1	16.79	7.655	6.050	4.993	4.108	3.913	3.099	2.711	2.834	2.697	2.215	2.211	1.955	1.865	1.864	2.000	1.995	1.863	1.784	1.768	1.809	1.541	1.594	1.451	1.616	1.878	1.720	1.926	2.030	1.924	1.649	1.485	1.333	1.379	1.345	1.214	1.240	1.435	1.441	1.435	1.565	1.639	1.988	2.308	2.603	2.916	3.387	3.978	3.983	3.449	3.326	3.214	3.049	3.207	4.008	7.866	18.83	45.53
310.0	516.0	524.1	395.2	229.8	154.7	150.7	175.3	234.3	309.2	420.0	552.5	681.6	681.2	498.0	357.5	585.1	 2164	 6078	 8103	 1827	29.59	8.433	6.299	4.937	4.364	3.566	3.215	2.891	2.923	2.489	2.466	2.136	1.992	1.975	1.991	2.140	1.966	1.968	1.961	1.926	1.736	1.726	1.723	1.850	1.916	2.152	2.115	2.359	2.138	1.899	1.591	1.592	1.513	1.423	1.437	1.381	1.417	1.615	1.693	1.841	2.078	2.291	2.589	3.002	3.227	3.747	4.011	4.358	4.561	4.446	3.896	3.262	2.896	2.706	3.165	5.385	11.65
315.0	629.3	636.8	473.2	280.4	182.8	180.2	213.2	286.7	387.8	519.5	650.7	737.8	766.2	685.6	433.6	294.7	558.3	 1471	 3717	 9378	 3112	37.39	8.469	6.459	5.093	4.307	3.866	3.308	2.886	2.784	2.505	2.253	2.206	2.045	1.993	2.145	2.155	2.034	2.081	1.869	1.928	1.923	1.784	2.077	2.072	2.426	2.459	2.696	2.562	2.068	1.714	1.697	1.550	1.560	1.517	1.534	1.655	1.703	1.944	2.151	2.386	2.719	2.991	3.466	3.801	4.302	4.305	4.644	4.622	5.070	5.225	4.634	3.480	2.940	2.447	2.615	3.717
320.0	723.6	742.3	528.7	317.6	201.3	194.0	239.8	327.6	437.2	587.1	728.5	802.7	806.7	747.8	553.2	272.1	219.2	373.6	 1008	 4931	9999.9	 2414	26.97	8.077	6.441	5.028	4.179	3.634	3.359	2.946	2.645	2.411	2.388	2.151	2.205	2.104	2.322	2.081	2.054	1.896	1.939	2.011	2.065	2.239	2.409	2.520	2.514	2.878	2.830	2.194	1.877	1.807	1.694	1.685	1.606	1.682	1.724	1.857	2.250	2.204	2.677	2.904	3.265	3.819	4.264	4.537	4.814	4.903	4.993	5.142	5.217	5.095	4.521	3.378	2.600	2.167	1.973
325.0	795.3	824.4	593.5	334.5	218.1	212.9	263.7	357.8	475.0	647.6	791.7	876.1	846.4	753.2	623.1	343.7	163.6	137.2	257.2	 1398	 6286	9999.9	383.0	17.38	8.079	6.167	4.676	4.018	3.578	3.193	2.912	2.582	2.466	2.281	2.271	2.257	2.375	2.198	2.289	2.024	1.962	2.207	2.198	2.279	2.656	2.768	2.602	3.193	2.903	2.333	2.026	1.885	1.563	1.686	1.697	1.803	1.864	1.903	2.258	2.539	2.812	3.120	3.532	4.028	4.458	4.790	5.164	5.278	5.263	5.149	4.969	4.674	4.741	4.193	3.259	2.233	1.831
330.0	869.7	878.9	654.3	366.8	241.3	236.8	286.3	388.0	527.3	703.7	862.9	946.3	918.8	787.4	615.0	420.7	225.8	104.2	98.03	342.0	 1682	 5667	 8324	 3846	27.32	8.398	5.835	4.993	4.453	3.724	3.159	2.791	2.593	2.418	2.392	2.490	2.491	2.308	2.300	2.204	2.102	2.217	2.328	2.411	2.715	3.030	3.048	3.416	3.208	2.582	2.136	2.088	1.752	1.720	1.744	1.752	2.029	2.131	2.464	2.651	3.013	3.455	3.859	4.338	4.970	5.073	5.338	5.586	5.534	5.582	5.413	5.063	4.618	4.075	3.635	3.165	2.400
335.0	890.2	923.4	693.4	400.0	262.9	253.9	307.9	422.0	565.4	742.4	909.8	993.8	972.2	820.7	623.4	403.3	295.0	159.4	78.08	113.7	401.7	 1318	 3319	9999.9	 2770	35.57	8.638	6.527	5.597	4.407	3.745	3.121	2.993	2.610	2.737	2.702	2.541	2.352	2.371	2.331	2.301	2.360	2.276	2.328	2.656	3.055	3.214	3.479	3.340	2.679	2.321	2.162	1.819	1.704	1.734	1.846	2.230	2.245	2.544	2.681	3.174	3.658	4.150	4.449	5.141	5.310	5.477	6.130	6.006	5.884	5.680	5.014	4.758	3.995	3.436	3.027	2.876
340.0	886.5	923.0	713.1	410.7	279.7	271.3	321.5	432.1	576.0	758.6	919.3	 1010	978.5	830.6	628.0	393.1	278.5	223.8	104.6	70.38	122.9	320.2	838.2	 4731	9999.9	 2296	26.79	8.000	6.934	4.998	4.268	3.592	3.154	2.664	2.710	2.526	2.486	2.444	2.429	2.260	2.201	2.481	2.403	2.359	2.634	3.244	3.141	3.580	3.231	2.791	2.155	2.261	1.975	1.795	1.853	1.915	2.119	2.446	2.655	2.958	3.269	3.793	4.038	4.703	5.183	5.384	5.813	5.833	6.078	5.862	5.677	5.209	4.943	4.238	3.320	2.927	2.781
345.0	874.4	902.7	691.2	417.0	284.1	282.6	334.0	435.5	575.7	752.7	911.1	987.6	961.3	826.7	627.8	392.9	253.7	227.1	166.5	71.45	69.14	103.6	214.0	 1250	 6655	9999.9	342.2	18.53	8.156	6.230	4.608	3.715	3.355	2.815	2.738	2.542	2.605	2.655	2.419	2.352	2.230	2.345	2.219	2.261	2.742	3.169	3.202	3.383	3.165	2.823	2.120	2.298	1.981	1.805	1.880	1.991	2.144	2.572	2.629	3.051	3.441	3.692	4.078	4.743	5.064	5.554	5.584	5.857	5.877	5.860	5.647	5.179	4.852	4.244	3.456	2.909	2.601
350.0	834.1	843.4	655.9	418.8	302.2	293.7	337.5	428.7	559.0	719.1	865.7	942.0	916.3	790.5	611.2	394.0	254.6	191.4	187.8	145.2	80.97	70.05	86.34	309.8	 1710	 5843	 8252	 3743	26.75	8.041	5.999	4.392	3.802	3.009	2.836	2.773	2.598	2.496	2.377	2.305	2.269	2.188	2.296	2.419	2.632	3.020	3.107	3.355	3.185	2.699	2.250	2.223	2.018	1.953	1.917	1.913	2.174	2.395	2.549	2.913	3.373	3.611	4.063	4.635	4.819	5.311	5.570	5.531	5.518	5.632	5.206	4.969	4.821	3.990	3.482	2.872	2.620
355.0	763.8	794.4	622.8	408.7	312.2	297.5	344.6	422.0	535.1	675.2	801.0	873.1	850.3	743.4	580.6	390.0	258.7	188.4	163.0	181.6	149.5	85.57	72.72	111.7	413.1	 1346	 3177	 9780	 2619	34.65	7.788	5.607	4.280	3.396	3.275	3.176	2.868	2.655	2.504	2.286	2.325	2.263	2.281	2.335	2.714	2.859	3.053	3.171	3.017	2.566	2.209	2.296	2.093	2.083	1.907	1.954	2.157	2.359	2.465	2.883	3.184	3.583	3.808	4.318	4.674	5.159	5.060	5.251	5.440	5.262	5.022	4.883	4.378	3.984	3.488	3.071	2.657
360.0	695.6	746.6	595.2	403.4	320.0	309.1	343.6	418.3	514.8	641.0	756.6	815.6	804.7	705.7	563.0	385.9	263.9	198.4	162.4	167.0	194.9	127.0	81.42	77.01	133.2	330.6	779.2	 4551	9999.9	 2211	25.74	6.935	5.002	4.014	3.429	3.232	2.808	2.656	2.383	2.312	2.237	2.269	2.193	2.319	2.725	2.862	2.806	3.050	2.791	2.516	2.105	2.394	2.024	2.090	2.055	1.855	2.205	2.368	2.559	2.890	3.082	3.428	3.621	4.145	4.492	4.813	4.885	4.833	4.922	4.814	4.990	4.575	4.396	3.888	3.430	2.987	2.545
365.0	667.5	691.9	569.1	405.0	323.8	315.0	347.6	413.0	499.7	616.8	717.3	767.9	756.6	668.6	540.1	378.4	269.8	211.4	174.4	162.2	187.3	181.5	108.3	81.06	79.77	111.8	202.9	 1167	 6915	9999.9	326.8	16.01	6.315	4.640	3.815	3.390	2.813	2.764	2.369	2.390	2.319	2.140	2.157	2.229	2.464	2.733	2.756	3.031	2.645	2.502	2.100	2.218	2.023	2.046	2.101	2.020	2.187	2.385	2.573	2.709	3.100	3.404	3.572	3.943	4.349	4.368	4.594	4.682	4.847	4.846	4.664	4.334	4.324	3.827	3.412	2.911	2.591
370.0	611.6	650.6	535.4	397.2	334.2	323.8	347.2	401.0	475.1	580.2	662.7	703.7	694.1	616.2	506.9	370.6	282.0	227.7	195.3	178.4	172.0	191.5	172.7	111.6	84.47	74.62	82.54	288.2	 1756	 5942	 8314	 3386	22.66	6.282	5.009	4.030	3.126	2.886	2.644	2.532	2.299	2.159	2.183	2.275	2.320	2.615	2.594	2.867	2.625	2.373	2.138	2.229	2.140	2.149	2.118	2.092	2.258	2.432	2.674	2.695	2.982	3.145	3.520	3.760	3.890	4.090	4.316	4.408	4.572	4.446	4.410	4.142	3.841	3.570	3.306	3.028	2.823
375.0	561.6	580.7	500.9	390.3	344.7	332.1	354.5	391.4	455.3	540.0	603.8	640.5	628.3	567.2	471.6	361.1	286.7	242.6	214.5	197.6	181.5	178.9	192.9	173.1	108.3	80.89	67.52	100.2	418.4	 1360	 3358	 9671	 2257	28.28	6.459	5.106	3.910	3.336	2.816	2.719	2.286	2.151	2.270	2.414	2.316	2.400	2.491	2.707	2.523	2.215	2.040	2.356	2.224	2.227	2.220	2.007	2.301	2.505	2.694	2.691	2.848	2.929	3.184	3.597	3.799	3.852	4.096	3.976	4.088	3.999	4.106	4.047	3.902	3.362	3.241	2.940	2.822
380.0	536.3	557.2	489.6	386.3	342.4	341.2	351.8	382.8	436.4	504.0	566.7	594.9	587.4	529.7	452.1	350.4	290.1	249.4	227.3	212.1	196.5	181.8	180.5	200.3	147.7	94.13	72.28	65.54	126.7	327.4	811.9	 4752	 9698	 1801	19.97	5.819	4.287	3.819	2.904	2.697	2.523	2.376	2.293	2.376	2.341	2.238	2.351	2.557	2.414	2.302	2.152	2.329	2.151	2.245	2.336	2.094	2.357	2.577	2.585	2.695	2.839	2.983	3.237	3.526	3.698	3.726	3.849	3.811	3.815	3.776	3.885	3.914	3.606	3.168	3.065	3.004	2.817
385.0	499.6	519.6	467.9	388.5	362.4	351.4	354.9	384.8	424.0	479.1	533.4	561.2	553.9	503.4	433.7	345.0	291.5	259.3	236.3	224.0	208.6	191.5	179.9	190.8	187.7	117.6	82.23	66.46	67.83	102.8	204.5	 1219	 6408	 8655	265.9	11.18	4.974	4.243	3.215	2.789	2.619	2.401	2.301	2.263	2.309	2.234	2.449	2.521	2.469	2.331	2.102	2.214	2.208	2.335	2.216	2.181	2.445	2.581	2.606	2.611	2.690	3.014	3.257	3.380	3.180	3.652	3.665	3.618	3.672	3.651	3.876	3.542	3.506	3.196	2.926	2.748	2.899
390.0	464.2	491.1	448.6	392.9	358.3	359.1	359.1	382.6	409.2	452.6	496.2	515.4	505.3	467.2	408.0	335.2	291.5	263.8	248.7	236.2	222.1	207.6	191.5	181.1	185.0	166.4	112.9	80.29	67.02	63.28	76.78	294.9	 1633	 5211	 7184	 2646	18.19	5.487	4.154	3.248	2.915	2.530	2.425	2.319	2.256	2.337	2.439	2.349	2.490	2.239	2.011	2.347	2.245	2.292	2.236	2.234	2.579	2.578	2.576	2.688	2.648	2.816	2.941	3.195	3.161	3.363	3.379	3.286	3.446	3.582	3.439	3.339	3.239	3.076	2.857	2.775	2.793
395.0	494.4	467.4	441.1	390.5	373.3	367.7	367.9	381.6	398.2	429.3	462.0	480.5	468.7	432.9	386.4	325.7	289.9	269.0	255.9	244.4	232.3	221.0	204.1	188.6	173.3	177.3	163.6	108.0	81.14	67.19	58.54	97.44	385.0	 1190	 3108	 8548	 1840	22.86	5.271	4.079	3.270	2.761	2.646	2.420	2.197	2.424	2.461	2.364	2.333	2.201	2.063	2.290	2.191	2.288	2.288	2.383	2.657	2.581	2.696	2.737	2.614	2.685	2.870	2.919	3.256	3.005	3.140	3.142	3.372	3.366	3.151	3.303	3.069	2.886	2.972	2.760	2.957
400.0	437.1	457.1	437.2	394.2	367.1	372.2	367.8	380.3	395.3	415.9	449.2	450.5	445.9	411.1	373.4	322.1	289.7	268.1	257.2	251.0	238.4	227.6	211.6	195.7	177.3	167.2	179.7	144.2	97.88	77.55	61.87	59.15	113.8	284.7	751.0	 4486	 7980	 1467	15.81	4.890	3.785	3.190	2.787	2.448	2.417	2.520	2.374	2.360	2.374	2.124	2.108	2.444	2.266	2.400	2.448	2.432	2.481	2.565	2.572	2.828	2.620	2.678	2.897	2.869	3.017	2.847	3.022	3.074	3.097	3.155	3.189	3.142	3.080	3.112	2.899	2.657	2.930
405.0	390.4	432.5	419.2	404.1	375.9	371.9	372.7	383.5	392.8	412.0	428.5	435.0	427.9	398.1	360.8	314.3	286.0	270.6	259.1	251.3	240.4	229.4	219.1	202.7	184.8	168.3	169.4	171.0	122.3	88.32	71.43	57.37	58.18	87.25	185.6	 1156	 5403	 7171	230.2	8.979	4.186	3.586	3.184	2.703	2.682	2.471	2.295	2.284	2.385	2.178	2.084	2.475	2.330	2.424	2.437	2.474	2.517	2.618	2.752	2.695	2.685	2.783	3.075	2.743	2.894	2.933	2.831	3.094	3.058	3.045	3.146	3.084	2.900	2.908	2.782	2.774	2.944
410.0	387.7	424.0	411.7	392.8	376.7	377.3	377.6	383.6	390.0	404.0	418.4	418.7	408.8	381.0	343.1	304.9	280.3	267.9	259.3	252.1	243.1	233.9	225.0	211.4	194.8	177.5	164.9	168.5	160.5	118.9	87.75	68.49	55.35	50.35	64.60	275.6	 1385	 4574	 5540	940.9	15.52	4.472	3.605	3.021	2.767	2.639	2.329	2.406	2.376	2.261	2.110	2.384	2.345	2.506	2.454	2.556	2.605	2.645	2.668	2.680	2.781	2.728	2.754	2.916	2.753	2.849	2.808	2.971	2.923	2.981	3.027	3.056	2.772	2.810	2.788	2.764	2.837
415.0	362.7	406.8	398.5	396.7	385.4	386.8	388.2	390.5	390.6	401.6	410.5	407.2	391.8	360.7	331.0	294.7	272.7	262.7	254.5	248.1	241.3	234.9	226.3	217.2	201.0	187.6	174.2	162.1	166.2	161.1	112.7	81.69	64.06	50.59	44.45	83.09	324.9	 1046	 2595	 6407	 1552	19.53	4.571	3.625	2.899	2.775	2.412	2.447	2.360	2.256	2.010	2.172	2.417	2.539	2.566	2.548	2.680	2.681	2.712	2.632	2.798	2.794	2.759	2.866	2.764	2.592	2.860	3.012	2.797	2.696	2.823	2.677	2.755	2.708	2.601	2.734	2.747
420.0	346.7	392.1	391.4	393.6	385.2	389.2	390.8	390.8	390.6	396.6	403.5	398.1	376.4	348.5	317.6	284.8	267.4	258.3	249.6	243.0	238.8	231.9	225.7	220.2	205.6	194.1	177.7	166.3	160.0	169.2	141.2	95.19	72.64	56.52	44.34	44.69	91.75	247.8	630.7	 3628	 6177	 1177	13.85	4.088	3.549	2.976	2.621	2.507	2.383	2.340	2.095	2.350	2.516	2.470	2.514	2.550	2.641	2.795	2.785	2.815	2.844	2.807	2.789	2.840	2.875	2.674	2.957	2.779	2.695	2.727	2.750	2.766	2.770	2.763	2.631	2.780	2.679
425.0	341.5	385.2	383.1	402.5	390.4	392.8	393.4	401.7	393.5	394.3	406.2	394.4	366.4	340.2	307.7	278.5	258.8	253.2	246.0	241.0	236.4	231.8	227.0	219.9	209.7	197.8	185.0	172.7	161.1	162.9	161.1	117.2	82.60	62.95	50.14	40.22	43.94	72.13	154.2	955.4	 4531	 5170	207.7	6.709	4.073	3.280	2.850	2.729	2.377	2.304	2.155	2.474	2.398	2.434	2.516	2.596	2.759	2.818	2.739	2.795	2.798	2.931	2.884	2.780	2.886	2.543	2.938	2.672	2.796	2.859	2.713	2.587	2.686	2.493	2.673	2.717	2.615
430.0	358.9	377.9	383.0	396.5	390.9	394.5	401.7	402.9	404.4	401.0	406.5	389.2	359.9	330.1	300.6	271.4	255.9	246.9	240.1	236.0	232.1	228.0	224.2	219.5	210.8	201.5	190.0	180.8	169.1	161.4	158.7	142.9	104.6	74.47	58.65	46.20	38.46	37.60	51.12	225.9	 1198	 3541	 4518	845.8	13.83	4.207	3.287	2.989	2.668	2.447	2.245	2.581	2.512	2.586	2.600	2.609	2.790	2.814	2.795	2.834	2.808	2.802	2.905	2.778	2.944	2.716	2.854	2.694	2.784	2.696	2.660	2.545	2.618	2.491	2.538	2.511	2.707
435.0	594.6	368.9	380.9	389.1	390.2	398.8	402.2	403.8	410.3	408.0	408.5	388.1	356.8	323.0	292.1	264.9	250.9	240.4	234.1	228.8	227.6	221.3	220.5	217.0	211.9	203.5	196.2	187.6	178.0	166.8	154.6	144.7	130.3	91.98	69.16	54.52	42.84	35.81	32.34	66.53	279.2	812.4	 2285	 5451	 1405	16.94	4.231	3.530	3.050	2.568	2.405	2.479	2.530	2.665	2.590	2.582	2.710	2.968	2.885	2.769	2.897	3.003	2.961	2.858	3.035	2.665	2.890	2.946	2.710	2.521	2.602	2.516	2.514	2.458	2.592	2.584	2.491
440.0	 1083	374.1	372.8	374.6	393.6	404.7	399.9	407.0	411.5	410.4	413.8	388.3	350.4	316.1	282.9	260.0	241.8	238.6	227.9	222.9	220.9	218.2	216.6	215.5	211.1	204.5	196.9	189.6	182.3	172.5	156.2	141.6	138.0	111.4	78.38	60.41	47.98	38.52	31.62	33.72	77.28	193.1	568.8	 3434	 5643	214.9	9.291	4.228	3.298	2.743	2.462	2.653	2.816	2.796	2.659	2.791	2.812	2.973	2.978	2.883	2.907	3.012	2.845	2.961	2.943	2.674	2.770	2.784	2.659	2.584	2.609	2.467	2.572	2.528	2.581	2.288	2.461
445.0	 1740	476.0	373.7	379.6	383.0	391.1	401.4	405.6	405.0	408.8	407.4	383.3	345.4	306.0	277.2	251.9	236.1	229.4	223.1	217.0	214.6	212.5	210.0	210.5	209.0	201.6	196.0	189.0	183.4	174.5	158.6	141.5	132.1	123.1	90.91	67.06	53.08	42.87	34.65	30.14	34.83	56.88	139.1	953.6	 4624	 4512	157.9	5.945	3.710	2.920	2.670	2.787	2.864	2.826	2.624	2.785	2.882	2.936	3.005	3.017	2.935	2.977	3.014	2.930	2.842	2.825	2.828	2.631	2.594	2.694	2.437	2.364	2.429	2.470	2.430	2.380	2.496
450.0	 2071	 1260	399.7	368.4	372.8	384.1	390.4	399.8	405.3	405.5	396.3	370.2	334.8	297.6	265.4	242.6	226.4	219.5	211.6	205.5	205.0	202.7	201.7	201.2	201.0	195.3	191.4	185.7	179.8	173.0	159.9	141.3	125.4	118.5	105.6	79.78	60.57	48.91	41.28	34.67	30.87	31.04	45.91	224.8	 1245	 3663	 3125	733.8	11.50	3.685	3.028	2.968	2.813	2.796	2.585	2.737	2.799	3.027	2.967	2.935	2.884	2.896	2.951	2.952	2.880	2.805	2.848	2.655	2.549	2.581	2.436	2.487	2.386	2.414	2.350	2.368	2.362
455.0	 1206	 2363	722.8	364.7	365.4	369.8	377.1	392.9	395.2	389.6	381.7	349.1	318.1	282.1	253.4	230.4	213.6	206.2	200.8	193.0	192.5	189.6	190.0	191.2	189.1	185.1	182.6	179.1	177.8	168.8	157.9	141.2	124.3	109.0	104.4	95.21	72.27	55.67	47.29	40.15	34.91	29.24	28.87	64.34	288.0	846.8	 1941	 4742	 1139	13.09	3.637	3.099	3.034	2.982	2.674	2.733	2.689	2.889	2.966	2.842	2.891	2.838	2.773	2.843	2.858	2.837	2.714	2.465	2.328	2.495	2.392	2.502	2.289	2.354	2.348	2.440	2.269
460.0	578.9	 2531	 1554	370.3	348.6	358.8	371.8	377.3	382.1	379.3	371.9	337.4	305.3	273.0	244.1	219.4	203.3	196.1	190.5	183.4	182.5	179.2	181.4	181.2	181.1	177.3	173.9	171.9	169.7	162.8	153.7	137.9	121.9	105.5	97.94	97.04	80.88	61.59	50.81	44.28	38.54	32.05	26.49	30.55	76.37	198.3	485.2	 2991	 4559	166.2	8.894	3.489	3.110	3.092	2.858	2.708	2.608	2.746	2.898	2.714	2.917	2.851	2.919	2.843	2.826	2.703	2.646	2.513	2.417	2.413	2.311	2.431	2.179	2.198	2.274	2.155	2.068
465.0	340.0	 1794	 2612	528.7	336.4	344.3	351.8	365.3	365.7	365.5	357.2	327.9	294.2	260.8	233.4	207.7	195.0	184.8	178.7	174.4	172.0	168.9	169.8	172.1	169.8	167.6	164.4	165.2	162.7	156.0	149.1	134.8	118.4	105.2	95.22	90.08	87.60	68.38	54.12	47.09	41.17	33.73	27.68	23.99	30.35	54.51	116.5	819.9	 3824	 3586	137.4	5.107	3.479	3.338	2.958	2.924	2.834	2.797	2.724	2.637	2.687	2.675	2.821	2.720	2.662	2.670	2.656	2.580	2.343	2.369	2.339	2.260	2.007	2.239	2.107	2.170	2.108
470.0	251.5	760.8	 2802	 1597	353.1	323.7	330.9	340.5	345.1	341.6	334.2	306.7	275.1	242.5	214.7	192.3	180.6	171.8	164.7	160.3	158.6	155.9	156.5	156.4	156.8	154.3	152.3	152.3	150.1	146.8	140.3	128.4	114.1	101.8	91.14	82.44	81.22	75.29	60.44	49.78	42.61	35.76	29.19	23.73	21.10	23.23	34.49	190.1	 1036	 3064	 3078	685.1	11.40	3.636	3.063	3.075	2.987	2.743	2.735	2.614	2.746	2.617	2.688	2.642	2.560	2.550	2.447	2.392	2.267	2.197	2.198	2.159	2.154	2.117	2.125	2.080	2.112
475.0	245.0	348.1	 1468	 2987	521.3	301.5	308.5	317.4	319.5	320.8	312.3	287.3	255.7	222.4	198.5	176.4	165.2	156.5	150.2	146.0	144.7	141.7	142.0	143.2	141.7	140.0	138.5	138.9	136.5	134.5	130.3	119.4	107.6	95.74	85.85	78.55	71.90	71.20	66.96	53.54	43.11	36.81	30.10	23.87	19.45	16.69	16.52	49.67	236.3	704.1	 1519	 3511	 1006	13.89	3.373	3.133	2.930	2.621	2.575	2.446	2.700	2.509	2.401	2.403	2.368	2.250	2.305	2.199	2.128	2.008	2.161	1.880	2.000	2.012	1.941	1.892	1.989
480.0	229.7	259.0	615.1	 3027	 1489	305.3	293.7	301.1	300.1	302.0	289.7	269.5	241.6	205.8	184.8	165.3	154.0	146.3	139.1	137.8	132.6	132.1	131.4	131.5	130.9	130.0	129.0	129.0	128.1	125.3	121.6	114.4	102.6	91.79	83.10	75.32	68.23	64.37	65.20	58.16	44.88	36.95	30.42	24.30	19.87	15.90	12.92	18.67	58.46	162.1	372.1	 2012	 3383	190.4	9.108	3.396	3.076	2.706	2.787	2.559	2.501	2.631	2.256	2.309	2.289	2.287	2.253	2.250	2.057	1.931	1.993	1.822	1.934	1.786	1.848	1.783	1.979
485.0	222.4	233.9	315.1	 2000	 2485	418.2	275.1	281.7	285.4	283.7	277.9	254.0	226.7	200.4	175.1	157.2	144.8	135.9	131.0	127.6	125.5	123.9	122.1	123.3	122.4	121.6	121.1	120.5	120.9	118.6	115.7	106.1	96.75	87.18	80.35	71.93	66.30	60.88	59.29	58.27	47.42	36.49	30.48	24.12	19.62	15.69	12.52	11.76	19.17	41.59	87.79	528.5	 2670	 2927	159.2	5.017	3.296	2.842	2.751	2.526	2.468	2.340	2.339	2.245	2.318	2.382	2.206	2.080	1.881	1.981	1.985	1.848	1.879	1.707	1.815	1.674	1.986
490.0	206.4	221.2	233.7	758.6	 2447	 1490	296.7	264.1	262.1	267.6	253.7	236.9	209.3	185.1	161.6	143.5	133.8	126.2	119.1	117.2	114.0	113.0	112.6	111.7	111.3	110.3	109.3	109.3	109.7	108.6	105.5	98.64	89.77	81.96	75.13	67.42	62.56	56.68	53.27	52.84	49.96	38.84	30.63	24.60	19.77	15.97	12.88	10.79	10.70	14.76	24.28	122.4	699.4	 2073	 2226	703.0	12.13	3.218	2.736	2.609	2.552	2.294	2.262	2.333	2.250	2.235	2.057	2.003	1.929	1.917	1.940	1.740	1.736	1.720	1.701	1.717	1.779
495.0	182.0	223.9	202.1	325.7	 1204	 2630	690.5	240.1	244.2	242.2	229.0	211.1	190.0	169.2	145.3	130.8	121.1	113.9	108.6	104.2	102.7	100.6	100.4	98.93	100.2	98.51	97.14	98.28	98.16	96.36	94.92	89.27	82.57	75.42	67.77	62.89	57.88	53.52	49.02	46.05	45.40	41.35	31.54	24.55	20.10	16.33	13.39	10.92	9.264	9.247	10.39	31.71	159.8	474.4	 1278	 3229	 1100	15.07	3.099	2.840	2.705	2.312	2.285	2.169	2.108	2.046	1.884	1.939	1.927	1.748	1.832	1.662	1.614	1.426	1.706	1.651	1.677
500.0	159.1	200.4	199.5	218.7	494.0	 2458	 1555	251.1	222.7	219.6	213.1	199.8	174.2	156.5	135.7	120.4	110.6	103.4	99.56	95.69	94.53	92.73	91.27	90.43	91.02	90.52	88.61	88.40	89.90	88.86	86.40	80.91	75.44	69.78	62.65	58.28	54.13	50.07	46.35	42.09	40.50	40.64	34.14	24.84	19.83	16.29	13.39	10.77	9.408	7.931	7.351	11.61	39.84	109.6	313.4	 1815	 3297	207.7	9.693	3.053	2.721	2.418	2.206	2.147	2.083	1.988	1.885	1.845	1.760	1.702	1.803	1.806	1.701	1.472	1.581	1.535	1.520
505.0	147.0	175.6	201.0	188.3	254.2	 1511	 2477	456.5	210.2	202.0	196.8	182.6	159.0	144.3	127.0	109.2	102.3	96.45	91.24	87.99	85.51	84.41	84.05	82.82	83.02	81.79	81.19	81.72	82.35	81.80	79.99	74.91	69.62	64.45	59.43	54.65	50.37	46.72	43.68	39.23	36.63	35.90	34.02	25.66	19.86	16.21	13.38	11.04	9.549	8.130	6.974	7.282	13.14	28.23	73.94	471.2	 2384	 2665	176.6	4.675	2.738	2.220	2.296	2.098	1.967	1.845	1.771	1.762	1.751	1.626	1.657	1.543	1.426	1.517	1.534	1.650	1.472
510.0	135.4	145.6	177.0	173.9	180.9	565.0	 2208	 1538	226.5	183.6	177.8	163.6	144.8	126.6	111.1	98.19	88.91	85.21	80.78	77.69	75.70	74.43	73.80	72.06	72.00	71.72	72.33	71.12	72.13	71.49	70.04	66.73	61.41	56.77	53.39	49.11	45.96	41.98	39.22	35.83	32.90	30.33	29.78	26.88	20.91	16.05	12.95	10.87	9.421	8.176	6.905	6.418	7.085	10.09	20.10	108.7	611.8	 1725	 1947	709.6	12.71	2.659	2.301	2.184	2.015	1.880	1.782	1.640	1.643	1.596	1.599	1.460	1.399	1.479	1.482	1.449	1.434
515.0	120.5	123.6	150.7	159.7	151.1	234.4	964.6	 2504	734.2	163.9	157.5	144.4	129.1	111.6	95.65	85.24	78.22	74.66	70.78	68.16	65.97	64.15	63.51	63.27	62.01	61.88	61.90	60.94	62.61	61.59	60.92	57.72	53.98	49.08	46.27	43.30	40.31	37.29	34.21	31.86	29.07	26.66	24.68	23.77	22.39	16.29	12.60	10.93	9.464	7.789	6.951	6.403	5.550	5.988	7.871	27.45	139.1	391.0	901.0	 2457	 1068	15.32	2.578	2.316	1.902	1.735	1.666	1.567	1.629	1.531	1.448	1.374	1.365	1.308	1.297	1.341	1.331
520.0	111.6	107.1	130.2	149.1	138.1	152.7	369.4	 2152	 1644	187.5	143.3	133.6	115.1	99.23	85.41	76.82	69.82	66.04	63.04	60.43	59.65	57.62	57.67	57.13	55.91	55.38	54.57	55.20	55.80	55.91	54.56	52.14	47.73	44.46	41.61	39.13	37.04	34.20	31.97	29.32	27.15	24.56	22.13	20.62	21.56	17.57	12.93	10.53	9.173	7.564	6.730	6.336	5.569	5.118	5.302	9.213	33.99	89.88	215.5	 1297	 2617	210.8	9.214	2.312	1.838	1.730	1.496	1.603	1.518	1.369	1.529	1.378	1.237	1.288	1.305	1.260	1.384
525.0	107.3	101.1	107.7	132.8	134.0	131.8	182.3	 1211	 2450	473.0	131.8	119.0	104.7	89.93	78.55	71.81	64.68	60.22	57.46	55.17	54.68	52.85	51.62	51.00	50.46	49.30	49.76	49.48	49.66	50.37	48.41	46.41	43.71	40.24	37.86	35.39	33.31	31.42	29.33	27.59	24.95	22.49	20.26	18.60	18.63	18.16	13.96	10.18	8.833	7.466	6.536	6.272	5.395	4.773	4.468	5.229	10.62	22.81	50.84	327.2	 1768	 1724	176.0	3.776	1.926	1.761	1.568	1.571	1.483	1.451	1.480	1.280	1.236	1.106	1.267	1.138	1.316
530.0	91.60	92.21	96.41	108.4	128.5	113.6	126.7	422.3	 1967	 1608	163.7	105.6	93.74	81.29	70.03	62.02	55.87	52.39	50.08	48.50	46.16	45.93	45.34	44.63	44.12	43.43	42.78	42.24	43.16	44.03	41.98	40.22	38.48	35.05	32.94	31.56	29.13	27.29	25.82	24.01	22.05	20.08	17.98	15.87	15.28	15.65	14.77	11.05	8.527	6.981	6.330	5.882	5.218	4.811	4.243	4.192	5.095	7.674	13.70	75.40	447.0	 1151	 1670	617.1	11.61	2.012	1.664	1.470	1.334	1.344	1.433	1.237	1.138	1.153	1.159	1.107	1.161
535.0	85.16	81.55	83.45	87.52	109.7	110.7	102.5	170.2	769.8	 2280	884.5	97.59	83.17	71.04	60.49	52.56	50.41	46.34	42.01	41.81	40.60	39.33	38.61	38.25	38.15	37.21	36.95	37.13	36.79	36.97	35.86	34.36	32.52	30.41	28.81	27.23	25.47	23.57	22.64	21.16	19.29	17.58	15.64	14.04	12.97	12.50	13.39	11.86	8.786	6.551	5.880	5.410	4.689	4.433	4.058	3.750	3.810	4.168	5.332	19.06	101.7	260.3	689.6	 1837	828.6	15.01	1.956	1.583	1.445	1.313	1.454	1.216	1.192	1.099	1.183	1.007	1.110
540.0	76.58	77.02	76.82	81.64	90.13	108.3	94.58	107.8	269.4	 1746	 1554	138.7	74.70	63.92	54.67	47.26	44.13	41.37	38.69	37.43	36.70	35.41	34.81	33.47	33.69	33.09	32.59	33.11	33.06	32.75	32.48	30.89	28.46	27.23	25.22	24.07	22.85	21.37	20.34	19.17	17.88	16.12	14.38	13.00	11.80	10.80	11.02	11.64	9.676	6.734	5.701	4.934	4.326	4.213	3.836	3.674	3.321	3.188	3.453	6.303	24.66	59.95	162.2	901.8	 1823	212.3	8.460	1.657	1.500	1.390	1.424	1.186	1.000	1.092	1.145	0.915	1.176
545.0	78.42	69.55	66.66	70.14	77.78	94.82	91.65	85.07	126.7	895.3	 2303	515.3	65.73	57.27	50.07	43.08	39.18	37.17	33.82	34.12	32.14	32.24	31.27	31.01	30.60	29.96	28.83	29.88	29.71	29.27	29.53	28.24	26.24	24.53	23.00	21.57	21.05	19.41	18.31	17.13	16.11	15.17	13.37	11.69	10.74	9.964	9.367	10.18	9.653	7.064	5.405	4.688	4.204	3.899	3.719	3.431	3.244	3.051	2.812	3.534	7.331	15.27	38.15	224.1	 1131	 1508	169.3	3.217	1.532	1.383	1.327	1.168	1.021	1.093	1.092	1.081	1.082
550.0	67.71	66.73	62.76	62.11	65.62	77.86	90.66	75.70	84.13	295.7	 1601	 1493	108.8	50.00	43.40	37.81	33.67	31.98	30.06	29.07	28.04	27.20	27.31	26.50	25.91	25.59	24.86	25.22	25.62	25.04	24.90	24.35	22.68	20.96	19.73	18.65	18.12	16.77	16.05	15.37	13.92	12.92	11.99	10.27	9.469	8.826	7.984	7.811	8.553	7.785	5.767	4.562	3.909	3.652	3.432	3.236	3.109	2.869	2.571	2.630	3.457	5.022	10.14	51.60	280.4	870.2	 1207	467.9	11.19	1.515	1.376	1.236	1.076	1.055	1.072	1.013	1.071
555.0	63.85	55.74	55.85	56.29	56.90	60.85	77.46	71.88	65.58	113.8	556.7	 1799	811.8	47.77	37.06	31.28	28.86	27.59	25.82	24.13	23.81	23.01	22.98	22.16	21.10	21.26	20.61	20.97	22.12	21.63	21.09	19.88	18.74	17.63	16.95	15.69	14.90	14.12	13.69	12.69	11.68	10.83	10.44	8.994	8.376	7.646	6.805	6.489	6.434	7.044	6.170	4.630	3.775	3.421	3.144	2.938	2.722	2.705	2.526	2.432	2.353	2.649	3.816	12.90	63.84	196.3	457.3	 1268	234.7	13.52	1.441	1.212	1.088	1.052	1.004	1.069	0.980
560.0	59.33	51.08	53.68	48.61	49.11	50.91	64.74	70.89	59.15	68.57	177.1	 1236	 1543	98.38	32.96	28.15	25.54	23.53	21.80	21.39	20.77	20.41	19.58	18.78	18.85	18.63	18.51	18.20	18.68	18.89	17.70	17.27	15.87	15.35	14.68	13.63	13.03	12.42	11.73	11.04	10.25	9.670	9.057	8.082	7.243	6.625	6.326	5.726	5.224	5.742	6.027	4.906	3.486	3.156	2.883	2.748	2.489	2.452	2.565	2.233	2.077	2.021	2.128	4.257	15.50	44.99	106.9	596.8	 1228	204.6	6.465	1.233	1.057	1.041	1.046	0.973	0.903
565.0	57.11	51.90	49.36	45.37	41.75	42.02	50.84	66.76	55.95	52.50	78.26	576.6	 1759	515.8	29.37	24.03	22.05	20.51	19.16	18.13	18.10	18.00	17.19	16.19	16.41	15.89	15.64	15.75	15.83	16.18	15.39	14.98	13.42	13.36	12.58	11.82	11.50	10.59	10.12	9.799	9.082	8.607	7.562	7.057	6.483	6.021	5.401	5.102	4.555	4.528	5.069	4.900	3.655	2.907	2.634	2.551	2.337	2.358	2.276	1.995	1.932	1.828	1.720	2.133	4.718	11.27	25.26	146.0	755.4	 1018	31.32	2.346	1.117	0.982	1.044	0.881	0.953
570.0	59.87	46.81	43.59	39.84	35.37	36.07	41.10	54.74	53.63	43.84	49.39	178.4	 1043	 1190	159.4	20.46	18.25	16.77	15.66	14.96	14.89	14.38	14.30	13.42	13.25	13.11	12.72	12.90	12.84	12.77	12.47	12.08	11.43	10.97	10.41	9.651	9.323	8.974	8.153	7.843	7.377	6.977	6.225	5.986	5.373	5.039	4.708	4.219	3.800	3.645	3.738	4.175	3.686	2.892	2.422	2.333	2.089	2.015	1.840	1.840	1.869	1.596	1.581	1.665	2.177	3.642	6.814	33.75	185.3	556.0	910.4	278.0	9.504	1.092	1.022	0.925	0.897
575.0	52.08	48.33	37.98	33.93	30.73	29.77	31.67	39.83	51.91	43.14	38.02	68.00	331.5	 1211	711.8	22.36	13.94	13.57	12.99	12.27	11.48	11.46	11.37	10.67	10.37	10.19	10.02	10.09	10.17	10.02	9.722	9.586	9.232	8.752	8.278	7.970	7.471	6.820	6.600	6.423	5.870	5.436	5.124	4.743	4.445	4.144	3.616	3.446	3.139	2.883	2.598	2.950	3.326	3.067	2.249	1.977	1.726	1.742	1.668	1.636	1.594	1.601	1.557	1.363	1.523	1.842	2.478	8.461	42.24	125.5	381.5	720.9	220.5	10.13	1.104	0.904	0.816
580.0	56.30	43.09	37.93	30.23	28.45	28.13	29.39	32.66	46.12	45.04	34.39	39.78	103.7	744.1	 1245	74.26	12.45	11.44	10.75	10.40	9.582	9.394	9.507	9.210	8.948	8.636	8.315	8.556	8.675	8.678	7.972	7.721	7.532	7.064	7.087	6.667	6.183	6.106	5.630	5.608	5.365	4.572	4.408	4.114	3.744	3.755	3.239	2.921	2.757	2.512	2.244	2.290	2.649	2.814	2.325	1.884	1.608	1.721	1.559	1.458	1.389	1.600	1.463	1.310	1.287	1.308	1.626	2.874	10.47	28.98	89.81	334.9	680.5	161.2	3.328	0.996	0.966
585.0	56.30	42.40	34.77	29.46	25.70	24.31	27.49	27.65	38.02	46.32	35.27	34.16	46.16	318.5	 1221	463.0	12.24	10.13	9.564	9.235	8.625	8.055	8.019	7.966	7.786	7.236	7.188	7.433	7.401	7.402	7.154	6.845	6.475	6.179	5.847	5.502	5.496	5.100	5.210	4.790	4.535	4.083	3.867	3.488	3.293	3.165	2.894	2.725	2.323	2.140	1.993	2.037	2.107	2.520	2.503	1.836	1.561	1.442	1.536	1.338	1.365	1.310	1.380	1.268	1.306	1.165	1.245	1.625	3.333	7.390	21.09	82.27	414.2	549.7	29.80	1.457	1.059
590.0	59.10	46.09	34.59	27.90	24.53	22.82	24.44	24.72	31.21	43.06	40.19	33.10	33.63	97.58	629.6	980.5	138.7	9.437	8.024	7.989	7.160	6.661	6.676	6.829	6.461	6.075	5.966	6.141	6.138	6.084	5.895	5.540	5.269	5.017	4.887	4.496	4.540	4.436	4.118	3.741	3.589	3.404	3.084	2.952	2.843	2.608	2.423	2.277	2.095	1.795	1.667	1.657	1.610	1.873	2.221	1.923	1.557	1.324	1.274	1.201	1.272	1.175	1.226	1.198	1.273	1.077	1.160	1.207	1.594	2.498	5.616	19.26	102.0	297.0	395.4	124.6	7.703
595.0	56.93	48.33	33.11	25.36	23.34	22.02	21.75	22.99	26.89	36.04	42.89	34.86	30.99	40.02	183.9	793.8	574.7	13.79	6.679	6.663	6.086	5.793	5.454	5.509	5.405	4.942	5.127	5.056	5.003	4.998	4.873	4.688	4.632	4.172	3.990	3.851	3.762	3.603	3.292	3.149	3.094	2.862	2.623	2.382	2.459	2.214	1.994	2.090	1.858	1.599	1.520	1.494	1.417	1.428	1.728	2.000	1.600	1.296	1.188	1.174	1.231	1.145	1.021	1.059	1.187	1.160	1.072	1.095	1.255	1.400	2.184	5.139	23.55	67.32	149.0	395.1	181.1
600.0	55.73	46.32	36.99	25.39	22.75	20.11	21.08	20.99	24.60	31.79	44.19	37.90	30.13	28.07	55.78	425.1	946.2	60.84	6.518	5.609	5.634	5.192	5.002	4.726	4.649	4.457	4.353	4.473	4.158	4.477	4.346	4.056	4.032	3.811	3.475	3.272	3.296	3.191	2.866	2.731	2.716	2.516	2.318	2.241	2.147	1.873	1.766	1.859	1.639	1.512	1.368	1.386	1.224	1.164	1.351	1.627	1.658	1.338	1.106	1.102	1.137	0.997	1.035	1.005	1.062	1.160	1.084	1.145	1.084	1.210	1.348	1.908	6.093	15.76	35.12	189.0	403.0
605.0	56.19	46.86	37.60	26.75	20.27	21.19	20.75	21.05	24.22	28.63	41.95	41.43	32.04	26.02	26.22	164.9	838.7	406.5	7.335	5.365	4.914	4.652	4.412	4.323	4.104	3.968	4.180	3.668	3.770	4.076	3.938	3.683	3.523	3.459	3.324	2.943	3.064	2.905	2.692	2.501	2.371	2.289	2.035	2.007	2.018	1.753	1.629	1.518	1.401	1.422	1.254	1.278	1.190	1.096	1.148	1.294	1.615	1.465	1.277	1.041	1.040	1.005	1.067	0.928	0.971	1.104	1.122	1.138	1.113	1.066	1.166	1.140	2.094	4.224	8.524	46.96	244.8
610.0	52.23	47.33	36.79	25.50	21.21	19.57	19.99	20.58	23.75	28.87	38.06	43.63	35.67	25.70	19.75	48.34	385.7	778.8	131.4	5.021	4.430	4.189	3.735	3.729	3.685	3.415	3.533	3.517	3.224	3.524	3.466	3.369	3.254	3.016	3.141	2.792	2.792	2.600	2.454	2.118	1.940	1.931	1.820	1.751	1.722	1.576	1.560	1.410	1.318	1.232	1.108	1.116	1.086	1.070	1.000	1.160	1.321	1.390	1.260	1.073	0.991	1.033	1.039	0.956	1.024	1.004	1.084	1.085	1.096	0.933	1.039	1.021	1.202	1.643	2.553	11.16	60.84
615.0	57.82	48.60	35.61	25.33	20.14	18.20	19.00	19.99	23.36	27.89	35.38	44.06	38.86	26.38	18.28	19.70	105.9	545.1	497.8	13.04	4.318	3.959	3.527	3.245	3.088	2.994	2.974	3.010	2.995	3.295	3.239	2.923	2.909	2.695	2.649	2.568	2.636	2.252	2.012	1.936	1.761	1.710	1.552	1.622	1.687	1.490	1.418	1.250	1.216	1.019	1.065	1.060	0.991	1.006	0.964	0.992	1.058	1.199	1.205	1.049	0.919	0.958	0.961	0.936	0.954	1.010	0.935	1.048	1.011	0.954	1.027	1.036	0.964	1.051	1.197	3.169	14.26
620.0	56.24	50.35	38.85	25.02	19.76	17.95	18.61	19.31	23.43	27.91	35.13	40.51	43.21	27.79	18.39	13.48	29.91	258.3	765.4	56.79	3.882	3.390	3.075	2.801	2.893	2.828	2.548	2.612	2.688	2.996	2.800	2.573	2.609	2.465	2.409	2.289	2.290	2.149	1.990	1.790	1.688	1.591	1.486	1.467	1.489	1.407	1.343	1.170	1.099	0.986	1.024	0.968	0.924	0.956	0.937	0.850	0.873	1.061	1.158	1.138	0.963	0.911	0.942	0.890	0.901	0.951	0.959	1.028	0.971	0.916	0.960	1.013	0.957	0.892	0.906	1.241	3.802
625.0	59.80	51.93	40.07	23.14	19.10	18.37	18.75	20.80	23.15	29.41	33.11	38.90	42.80	30.90	20.00	11.98	12.15	91.51	616.0	408.0	4.882	3.406	2.985	2.696	2.803	2.738	2.494	2.568	2.414	2.690	2.364	2.371	2.346	2.227	2.472	2.004	1.928	1.979	1.767	1.701	1.464	1.526	1.366	1.356	1.372	1.268	1.147	1.136	0.992	0.939	0.922	0.949	0.764	0.965	0.868	0.834	0.818	1.002	1.019	1.210	0.938	0.918	0.913	0.948	0.981	0.908	0.901	0.965	0.908	0.903	0.945	0.874	0.902	0.850	0.817	0.913	1.527
630.0	59.00	48.65	37.00	23.98	18.49	16.29	17.16	19.60	23.06	28.50	32.59	36.52	40.06	34.53	21.53	12.14	8.492	25.50	252.0	734.8	126.4	3.311	2.697	2.583	2.530	2.357	2.307	2.293	2.261	2.416	2.168	2.145	2.010	2.059	1.923	1.753	1.797	1.671	1.520	1.490	1.488	1.556	1.296	1.190	1.221	1.209	1.113	1.033	1.017	0.934	0.841	0.808	0.850	0.846	0.800	0.794	0.829	0.875	0.839	1.025	1.041	0.888	0.895	0.837	0.905	0.941	0.916	0.910	0.920	0.969	0.926	0.860	0.847	0.785	0.811	0.844	1.023
635.0	62.75	49.89	36.09	23.83	16.94	16.64	16.27	20.61	22.77	28.69	33.39	36.85	36.62	35.99	23.64	12.52	7.267	9.818	65.07	445.8	446.9	9.915	2.591	2.422	2.330	2.067	2.005	2.222	2.113	2.068	1.857	1.726	1.797	1.701	1.732	1.829	1.604	1.398	1.488	1.305	1.253	1.292	1.236	1.059	1.121	1.054	1.015	1.057	0.921	0.797	0.833	0.806	0.765	0.799	0.725	0.803	0.739	0.877	0.816	0.957	0.956	0.885	0.993	0.826	0.858	0.897	0.898	0.874	0.940	0.857	0.914	0.882	0.877	0.815	0.828	0.807	0.899
640.0	62.73	47.44	37.31	24.50	16.92	16.00	16.92	18.19	22.72	28.49	33.09	35.85	34.19	33.19	25.24	12.52	7.405	6.159	17.96	187.9	667.2	49.59	2.990	2.314	2.240	1.999	1.964	2.030	2.044	2.121	1.847	1.714	1.619	1.646	1.732	1.550	1.423	1.349	1.338	1.185	1.169	1.262	1.250	1.059	1.096	0.960	0.900	0.928	0.864	0.778	0.713	0.745	0.761	0.710	0.815	0.746	0.744	0.773	0.770	0.773	0.940	0.959	0.904	0.841	0.808	0.923	0.992	0.837	0.957	0.877	0.902	0.871	0.945	0.797	0.840	0.796	0.922
645.0	60.88	52.05	36.70	24.05	17.78	16.25	15.96	18.23	22.32	27.76	32.72	34.64	34.21	30.79	25.90	13.51	7.592	5.233	7.015	60.25	501.8	341.5	4.015	2.347	2.090	1.877	1.973	1.757	1.888	1.924	1.796	1.641	1.558	1.574	1.575	1.430	1.414	1.349	1.235	1.280	1.212	1.119	1.278	1.004	1.065	0.845	0.890	0.877	0.858	0.751	0.729	0.805	0.686	0.727	0.812	0.830	0.729	0.748	0.786	0.764	0.813	0.878	0.902	0.849	0.844	0.914	0.966	0.846	0.890	0.893	0.840	0.900	0.800	0.841	0.747	0.841	0.803
650.0	56.06	54.03	36.65	25.13	17.38	15.86	16.93	18.73	21.64	28.66	32.62	33.98	32.78	28.65	26.19	14.97	6.989	5.341	4.358	17.10	236.7	582.8	29.60	2.352	1.963	1.976	1.793	1.749	1.769	1.706	1.662	1.765	1.622	1.619	1.306	1.408	1.370	1.261	1.152	1.138	1.157	1.056	1.115	1.014	0.892	0.997	0.791	0.884	0.811	0.722	0.727	0.770	0.703	0.742	0.660	0.750	0.756	0.706	0.766	0.854	0.801	0.827	0.846	0.868	0.925	0.809	0.836	0.841	0.913	0.845	0.843	0.822	0.809	0.819	0.740	0.756	0.745
