Sample:	'1
File name:	c2025032601联通西上层 10倍.FD3
Run date:	'10:11:32, 03/27/2025
Operator:	Administrator
Comment:	'

Instrument
Model:	F-2700 FL Spectrophotometer
Serial number:	23B8-004
ROM Version:	4J14000 07

Instrument parameters
Measurement type:	3-D scan
Data mode:	Fluorescence
EX  Start WL:	220.0 nm
EX  End WL:	600.0 nm
EX Sampling interval:	5.0 nm
EM  Start WL:	230.0 nm
EM  End WL:	650.0 nm
EM Sampling interval:	5.0 nm
Scan speed:	12000 nm/min
EX Slit:	5.0 nm
EM Slit:	5.0 nm
PMT Voltage:	700 V
Response:	Auto 
Corrected spectra:	Off
Contour interval:	50.000

Peak integration
Integration method:	Rectangular
Sensitivity:	1
Threshold:	1.000

Peaks
No.	ApexEX/EM(nm)	Height(Data)
1	230.0/340.0	8441
2	230.0/500.0	301.3
3	235.0/510.0	237.5
4	240.0/265.0	439.9
5	240.0/525.0	199.5
6	245.0/270.0	432.9
7	245.0/535.0	174.9
8	250.0/275.0	565.8
9	250.0/550.0	138.4
10	255.0/280.0	641.1
11	255.0/560.0	121.6
12	260.0/290.0	616.6
13	260.0/575.0	105.7
14	265.0/585.0	99.90
15	275.0/615.0	212.9
16	280.0/320.0	4255
17	280.0/625.0	205.8
18	330.0/375.0	306.5
19	335.0/380.0	259.2
20	345.0/395.0	157.1
21	350.0/400.0	161.7
22	355.0/405.0	142.0
23	360.0/415.0	122.6
24	365.0/420.0	125.5
25	370.0/425.0	109.9
26	375.0/435.0	88.18
27	380.0/440.0	88.41
28	385.0/445.0	75.98
29	395.0/460.0	54.88
30	400.0/465.0	46.06
31	410.0/480.0	30.05
32	415.0/485.0	26.08
33	420.0/490.0	21.12
34	425.0/500.0	18.68
35	430.0/505.0	16.63
36	435.0/510.0	13.80
37	440.0/520.0	11.71
38	445.0/525.0	10.94
39	455.0/540.0	7.119
40	460.0/340.0	21.80
41	460.0/545.0	5.863
42	470.0/560.0	3.805
43	475.0/340.0	19.88
44	485.0/265.0	2.405
45	495.0/270.0	2.264
46	505.0/275.0	3.391
47	510.0/280.0	3.469
48	510.0/325.0	10.55
49	520.0/285.0	3.808
50	530.0/290.0	4.075
51	570.0/325.0	20.34
52	575.0/320.0	20.55

Data points
	220.0	225.0	230.0	235.0	240.0	245.0	250.0	255.0	260.0	265.0	270.0	275.0	280.0	285.0	290.0	295.0	300.0	305.0	310.0	315.0	320.0	325.0	330.0	335.0	340.0	345.0	350.0	355.0	360.0	365.0	370.0	375.0	380.0	385.0	390.0	395.0	400.0	405.0	410.0	415.0	420.0	425.0	430.0	435.0	440.0	445.0	450.0	455.0	460.0	465.0	470.0	475.0	480.0	485.0	490.0	495.0	500.0	505.0	510.0	515.0	520.0	525.0	530.0	535.0	540.0	545.0	550.0	555.0	560.0	565.0	570.0	575.0	580.0	585.0	590.0	595.0	600.0
230.0	93.42	1572	3027	733.5	24.40	5.281	3.385	3.320	2.646	2.687	2.419	2.958	2.556	1.971	1.827	1.464	1.242	1.128	0.790	0.678	0.593	0.585	0.433	0.478	0.429	0.352	0.353	0.314	0.289	0.299	0.345	0.270	0.244	0.237	0.210	0.242	0.206	0.210	0.196	0.199	0.449	0.831	0.709	0.330	0.186	0.241	1.745	6.921	10.72	6.575	2.050	0.360	0.127	0.123	0.111	0.117	0.124	0.115	0.103	0.118	0.090	0.089	0.094	0.102	0.112	0.095	0.103	0.096	0.119	0.086	0.095	0.099	0.097	0.091	0.086	0.092	0.081
235.0	185.4	452.7	1939	2769	529.9	37.35	3.930	3.809	3.307	2.907	2.741	2.663	2.527	2.069	1.943	1.384	1.393	1.089	0.768	0.685	0.631	0.625	0.518	0.485	0.389	0.322	0.435	0.279	0.257	0.305	0.312	0.253	0.256	0.207	0.199	0.239	0.238	0.240	0.234	0.199	0.273	0.380	0.674	0.751	0.637	0.303	0.572	1.860	4.395	7.048	9.057	8.903	3.434	0.619	0.183	0.108	0.114	0.131	0.103	0.118	0.093	0.109	0.087	0.090	0.113	0.096	0.086	0.108	0.137	0.053	0.102	0.116	0.080	0.108	0.109	0.089	0.107
240.0	285.9	228.8	592.8	2445	2869	410.9	18.34	4.441	4.069	3.238	3.321	2.893	2.761	2.281	2.196	1.609	1.332	1.002	0.746	0.682	0.646	0.541	0.642	0.535	0.480	0.334	0.377	0.368	0.280	0.350	0.256	0.260	0.323	0.239	0.228	0.243	0.242	0.256	0.279	0.160	0.205	0.287	0.328	0.610	0.856	0.740	0.535	0.581	1.165	2.133	5.174	12.16	13.92	8.797	2.846	0.443	0.140	0.111	0.183	0.135	0.110	0.117	0.119	0.094	0.122	0.120	0.076	0.125	0.107	0.078	0.083	0.127	0.105	0.109	0.106	0.108	0.102
245.0	208.6	307.6	210.6	872.7	3258	2770	293.9	9.015	5.994	4.020	3.831	3.559	2.765	2.491	2.349	1.838	1.600	0.958	0.875	0.724	0.753	0.649	0.426	0.599	0.508	0.435	0.327	0.391	0.320	0.349	0.309	0.270	0.299	0.268	0.264	0.216	0.225	0.250	0.221	0.193	0.238	0.239	0.213	0.266	0.455	0.850	0.995	0.814	0.539	0.713	1.342	4.178	10.19	16.51	15.99	7.629	1.986	0.209	0.179	0.120	0.130	0.112	0.113	0.108	0.102	0.105	0.090	0.104	0.111	0.089	0.101	0.113	0.130	0.099	0.083	0.120	0.103
250.0	80.77	221.0	318.1	305.4	1074	2978	3538	1132	60.64	6.444	5.221	4.000	3.376	2.692	2.448	1.779	1.700	1.313	1.112	0.784	0.697	0.627	0.605	0.626	0.496	0.375	0.385	0.398	0.348	0.422	0.407	0.306	0.261	0.253	0.247	0.246	0.238	0.238	0.218	0.210	0.199	0.238	0.204	0.197	0.259	0.375	0.589	0.951	1.025	0.946	0.665	1.119	2.582	5.328	10.02	14.72	18.42	16.05	8.562	1.985	0.199	0.165	0.150	0.105	0.116	0.119	0.130	0.126	0.121	0.120	0.094	0.089	0.130	0.089	0.091	0.105	0.101
255.0	36.63	70.55	234.5	381.3	336.0	773.1	2940	5780	1576	54.38	6.214	5.352	4.179	3.734	2.624	2.115	1.812	1.561	1.106	0.906	0.818	0.667	0.547	0.570	0.675	0.455	0.501	0.368	0.367	0.381	0.389	0.272	0.300	0.298	0.296	0.237	0.293	0.225	0.246	0.211	0.253	0.227	0.217	0.191	0.197	0.233	0.240	0.402	0.586	1.056	1.532	1.303	1.019	1.396	2.432	3.646	6.940	17.09	31.22	25.97	12.40	2.135	0.212	0.186	0.132	0.166	0.114	0.108	0.134	0.094	0.104	0.096	0.117	0.129	0.093	0.106	0.114
260.0	33.58	29.92	92.14	340.5	368.8	232.3	904.7	5016	6596	269.4	26.74	7.287	5.638	4.196	3.354	2.449	1.923	1.467	1.091	1.044	0.780	0.734	0.495	0.652	0.789	0.586	0.470	0.415	0.461	0.307	0.457	0.329	0.378	0.312	0.311	0.307	0.284	0.233	0.250	0.248	0.264	0.189	0.277	0.177	0.229	0.251	0.182	0.187	0.263	0.408	0.954	1.816	1.803	1.028	0.817	1.041	1.773	4.629	13.55	27.45	37.33	24.07	9.084	0.988	0.205	0.186	0.195	0.134	0.148	0.104	0.137	0.125	0.145	0.108	0.108	0.124	0.146
265.0	35.98	20.25	35.50	163.6	439.9	266.2	237.3	1715	7314	5473	214.0	14.31	7.616	5.602	4.041	2.704	2.105	1.869	1.373	1.103	1.152	0.710	0.728	0.614	0.633	0.437	0.471	0.502	0.468	0.522	0.462	0.298	0.350	0.270	0.304	0.279	0.290	0.288	0.251	0.209	0.245	0.216	0.266	0.234	0.225	0.265	0.162	0.163	0.213	0.175	0.354	0.984	1.805	2.405	1.483	0.664	0.574	1.226	3.333	8.041	20.72	38.84	32.28	20.70	4.991	0.375	0.179	0.217	0.161	0.110	0.175	0.167	0.180	0.101	0.149	0.104	0.148
270.0	46.69	31.78	28.28	59.38	214.7	432.9	298.4	437.5	2321	5740	6740	829.2	52.17	7.939	5.478	3.864	2.797	2.330	1.666	1.329	1.065	0.896	0.928	0.706	0.783	0.496	0.620	0.500	0.532	0.568	0.521	0.403	0.413	0.419	0.403	0.358	0.333	0.392	0.311	0.282	0.242	0.211	0.275	0.229	0.269	0.288	0.248	0.206	0.209	0.153	0.199	0.412	0.660	1.272	1.887	2.264	1.747	0.954	1.085	2.018	4.997	11.20	18.64	32.08	32.98	32.94	14.11	4.670	0.477	0.194	0.179	0.169	0.169	0.148	0.138	0.131	0.162
275.0	95.90	78.91	51.43	36.36	68.23	203.3	565.8	357.7	565.0	1428	4959	9570	1169	51.10	8.510	5.214	3.410	2.709	1.913	1.388	1.086	1.082	0.963	0.990	0.963	0.686	0.638	0.607	0.559	0.568	0.508	0.452	0.493	0.490	0.558	0.522	0.367	0.355	0.445	0.340	0.315	0.343	0.375	0.362	0.314	0.413	0.322	0.313	0.242	0.246	0.164	0.255	0.322	0.481	0.621	1.149	2.492	3.391	2.219	1.113	1.409	2.788	4.420	7.558	10.18	24.18	47.08	52.92	21.90	4.820	0.426	0.278	0.175	0.217	0.179	0.138	0.136
280.0	172.2	149.6	83.42	48.96	40.11	80.16	350.9	641.1	288.4	377.8	1417	7333	9310	836.3	23.38	7.726	4.459	3.440	2.277	2.002	1.635	1.348	0.931	0.839	1.074	0.723	0.652	0.772	0.570	0.552	0.449	0.410	0.590	0.700	0.644	0.720	0.641	0.637	0.516	0.451	0.404	0.417	0.503	0.464	0.483	0.519	0.485	0.410	0.341	0.271	0.258	0.237	0.249	0.350	0.322	0.464	0.975	2.278	3.469	3.210	1.681	1.020	1.281	2.035	2.685	6.125	16.13	38.77	56.30	31.98	16.91	2.404	0.250	0.246	0.177	0.199	0.232
285.0	278.8	240.6	143.4	70.90	45.31	54.28	139.4	560.7	568.2	209.2	418.2	2228	9221	7395	122.5	13.51	6.071	4.571	3.080	2.263	1.838	1.363	1.099	1.126	1.083	0.805	0.764	0.613	0.520	0.664	0.500	0.501	0.630	0.837	0.936	1.062	0.759	0.805	0.645	0.580	0.584	0.602	0.700	0.636	0.665	0.696	0.707	0.641	0.525	0.411	0.396	0.284	0.255	0.295	0.256	0.282	0.451	0.853	1.832	3.292	3.808	2.192	1.038	1.025	1.181	1.940	4.271	9.976	22.56	43.36	60.25	28.66	11.28	0.891	0.248	0.255	0.275
290.0	460.3	386.7	263.2	127.7	74.20	65.92	96.07	254.4	616.6	563.9	357.8	698.7	2715	6694	7129	1964	33.70	7.139	4.389	2.859	2.261	1.773	1.582	1.250	1.373	0.826	0.816	0.740	0.639	0.633	0.552	0.631	0.749	1.077	1.314	1.378	1.314	1.103	0.943	0.911	0.863	0.845	0.961	0.875	0.947	0.983	0.935	1.039	0.848	0.640	0.507	0.407	0.319	0.338	0.352	0.349	0.402	0.537	0.891	1.362	2.307	3.443	4.075	3.157	1.809	1.456	1.873	3.199	5.975	11.51	22.67	35.59	45.38	39.71	18.93	8.829	1.388
295.0	687.8	643.1	468.9	253.5	163.1	148.6	169.6	233.8	397.1	836.7	950.5	587.2	923.3	1753	4399	9999.9	702.6	41.78	7.243	4.339	3.025	1.968	1.631	1.565	1.642	1.081	0.719	0.790	0.849	0.652	0.688	0.664	1.001	1.282	1.689	1.836	1.625	1.429	1.370	1.332	1.205	1.285	1.389	1.199	1.236	1.433	1.587	1.441	1.365	1.076	0.852	0.881	0.726	0.718	0.694	0.661	0.721	0.791	1.015	1.261	1.490	2.034	2.877	4.661	5.463	3.862	2.627	2.601	3.192	4.108	6.427	9.337	12.10	19.72	42.07	62.08	30.09
300.0	1130	1114	868.9	575.7	408.6	362.5	405.6	390.2	624.4	973.4	1648	1305	1045	995.3	1546	6988	5936	560.2	26.81	6.386	4.157	2.705	2.023	1.837	2.149	1.298	1.212	0.980	0.825	0.813	0.761	0.785	1.068	1.465	2.047	2.128	2.209	2.102	1.980	1.911	1.633	1.889	1.942	1.847	2.011	2.456	2.596	2.520	2.296	1.996	1.609	1.672	1.540	1.446	1.524	1.496	1.797	2.222	2.055	2.268	2.632	2.813	3.573	4.709	6.468	7.988	7.660	5.803	5.134	5.236	5.247	5.240	5.626	7.277	13.81	32.85	56.89
305.0	1805	1820	1560	917.2	703.4	784.7	926.9	1016	1267	1714	2368	2862	2202	1341	1278	2666	7163	5234	82.87	13.73	5.894	3.598	3.057	2.561	2.221	1.628	1.328	1.123	1.091	1.016	0.998	0.947	1.074	1.788	2.620	2.821	2.959	2.933	3.083	2.813	2.507	2.632	3.077	3.072	3.677	4.204	3.998	4.561	4.186	3.354	2.953	3.138	3.024	3.060	2.915	2.999	3.977	4.776	4.396	4.575	5.350	5.861	7.539	8.466	9.306	10.80	13.28	13.26	12.29	10.40	9.719	8.437	8.238	7.953	8.559	12.25	22.62
310.0	2706	2938	2433	1658	1279	1250	1449	1596	1756	2268	2860	3544	3554	2592	1973	1790	2939	5782	5709	1470	25.72	5.800	4.000	3.425	2.938	1.981	1.570	1.450	1.347	1.168	1.116	1.044	1.285	2.019	2.904	3.298	3.715	3.930	3.726	3.684	3.797	3.799	4.208	4.277	5.072	5.741	6.274	6.726	6.471	5.041	4.428	5.098	4.692	4.503	4.649	4.821	6.092	6.955	7.077	6.954	7.582	8.200	9.587	10.95	11.79	12.97	14.62	16.43	18.04	17.22	15.59	13.38	11.96	11.34	10.09	10.16	11.42
315.0	3617	4078	3421	2363	1810	1691	1909	1995	2046	2561	3247	3893	4106	3694	2624	1875	1841	1943	3530	7044	520.5	26.01	5.753	4.541	3.550	2.117	1.972	1.460	1.527	1.451	1.307	1.246	1.387	2.109	2.928	3.410	4.115	4.238	4.235	4.609	4.788	4.985	5.409	5.557	6.567	7.869	8.703	9.709	9.103	7.212	6.101	7.316	6.756	6.453	6.344	6.819	8.021	8.856	8.474	8.798	9.111	9.242	10.89	12.14	13.85	14.60	16.29	17.85	18.87	19.32	19.98	19.41	16.67	14.21	12.45	10.92	10.28
320.0	4482	5207	4329	2830	2044	1870	2115	2196	2208	2739	3443	4107	4255	4038	3152	2031	1665	1100	1054	4598	6093	426.7	14.46	5.998	4.854	2.891	2.071	1.749	1.666	1.575	1.382	1.292	1.437	2.182	3.128	3.674	4.190	4.798	4.336	5.325	5.295	5.642	6.267	6.626	8.269	9.822	10.81	12.38	11.59	9.232	7.224	7.739	7.278	6.947	7.183	7.408	8.795	9.489	10.34	10.06	9.566	9.615	11.60	13.10	14.57	15.65	17.07	18.78	19.94	20.32	20.28	20.55	19.81	17.09	13.50	12.02	10.66
325.0	5343	6262	5317	3270	2143	1928	2136	2274	2224	2676	3415	4044	4193	3870	3325	2197	1613	923.8	446.6	1340	5406	3883	62.28	10.06	6.222	3.566	2.535	2.024	1.525	1.687	1.424	1.218	1.579	1.785	3.042	3.284	4.101	4.865	4.782	5.159	5.571	6.120	6.758	7.629	9.613	11.55	13.11	15.19	13.97	11.54	8.453	8.714	7.587	7.102	7.362	7.164	8.669	9.352	10.55	10.28	9.517	9.959	11.30	12.82	14.64	15.47	17.28	18.84	19.56	20.14	20.34	18.92	19.42	19.13	15.97	12.49	10.88
330.0	5717	6947	6400	4392	2984	2222	2160	2243	2150	2526	3184	3808	4001	3659	3058	2353	1714	946.1	413.8	469.3	1596	3901	4515	1259	25.03	5.455	3.443	2.592	1.923	1.779	1.655	1.268	1.621	1.983	2.827	3.476	3.947	4.793	4.816	5.221	5.857	6.300	7.222	8.257	10.25	12.68	14.49	16.68	16.74	14.17	11.54	11.65	10.47	9.878	9.082	7.797	8.637	9.452	10.05	9.688	9.213	9.332	10.69	12.10	13.30	14.59	16.15	17.62	18.56	19.08	19.22	18.46	17.88	16.98	15.30	14.03	12.46
335.0	6486	8159	8092	6404	4786	3068	2367	2285	2116	2474	3077	3708	3927	3693	3062	2383	2067	1265	620.7	445.2	619.5	1095	3081	6547	1917	22.76	4.952	3.269	2.463	2.320	1.787	1.499	1.606	2.226	2.669	3.532	4.049	4.601	5.524	5.435	6.418	6.668	7.985	9.460	11.37	14.41	16.71	19.56	20.71	18.12	16.37	18.22	17.03	15.76	12.68	9.712	9.683	9.887	10.26	10.35	9.498	9.536	10.63	11.51	12.79	14.18	15.65	16.99	17.75	18.93	18.93	18.75	18.14	16.94	15.42	13.14	13.67
340.0	6351	8194	8441	6826	5252	3235	2305	2186	1995	2292	2836	3404	3631	3457	2886	2215	1918	1434	723.3	464.8	422.6	459.2	975.9	4649	7519	360.8	10.45	3.822	3.082	2.261	1.917	1.755	1.693	2.165	2.833	3.511	4.024	4.593	5.212	5.306	6.229	6.343	7.756	9.186	11.35	14.32	16.41	20.00	21.80	19.36	17.58	19.88	18.85	17.47	13.98	10.29	9.346	10.02	9.991	9.733	9.147	9.052	10.01	10.88	12.14	13.30	14.46	15.59	16.87	17.55	17.77	17.70	17.35	15.72	14.16	12.63	12.52
345.0	5692	7416	7824	6322	4864	3002	2060	1945	1777	2005	2467	2949	3152	2997	2527	1937	1594	1311	809.1	454.6	359.3	307.8	397.0	1429	7051	3288	52.83	5.711	3.358	2.583	2.276	1.648	1.645	2.281	2.626	3.044	3.464	4.154	4.434	5.137	5.713	6.260	6.885	8.245	10.35	12.73	15.14	19.00	20.38	17.88	16.42	18.47	17.78	16.10	12.71	9.186	8.343	8.631	8.940	8.633	8.090	7.813	8.581	9.430	10.73	11.49	12.39	12.91	14.65	15.12	15.32	15.23	14.91	14.28	12.77	11.06	10.85
350.0	5042	6530	6970	5972	4743	2840	1837	1679	1528	1690	2073	2449	2647	2560	2167	1702	1373	1076	829.1	570.5	374.1	285.9	283.4	454.4	2075	3424	3551	934.5	16.85	3.634	2.608	2.031	1.875	2.061	2.551	2.757	3.055	3.685	3.818	4.468	4.928	5.658	6.378	7.348	9.373	11.61	13.03	16.38	17.58	16.19	15.55	17.64	17.01	15.77	11.88	8.498	7.936	7.592	7.596	7.342	6.957	6.759	7.051	7.923	8.513	9.681	10.58	11.09	12.05	12.59	13.01	13.10	12.74	12.41	10.83	10.15	9.300
355.0	4445	5643	6194	5473	4436	2647	1625	1425	1288	1408	1703	2012	2191	2140	1849	1476	1204	933.9	687.5	626.2	458.9	286.6	261.4	242.7	516.5	818.4	2435	4618	396.0	15.79	3.373	2.526	2.205	2.139	2.393	2.576	2.853	3.418	3.489	3.992	4.261	5.081	5.553	6.582	8.134	10.06	11.64	14.17	15.57	14.19	13.80	15.98	15.90	14.48	11.09	7.995	6.867	6.577	6.443	6.392	5.735	6.029	6.227	6.414	7.129	7.883	8.802	9.398	10.31	10.53	11.02	11.17	10.77	10.30	9.394	8.665	8.007
360.0	3632	4741	5204	4626	3846	2306	1405	1213	1092	1186	1411	1663	1795	1765	1547	1240	1011	794.7	568.7	508.8	504.9	305.7	231.5	177.2	170.3	208.4	653.6	3464	3298	320.8	6.876	2.824	2.192	2.092	2.107	2.135	2.646	2.895	3.315	3.498	3.919	4.304	4.789	5.681	6.687	8.532	9.632	12.06	13.14	12.31	12.36	14.10	14.07	12.57	9.744	6.907	5.962	5.452	5.587	5.411	5.049	5.066	5.305	5.834	6.036	6.651	7.465	7.818	8.445	8.886	8.999	9.194	8.977	8.615	7.972	7.528	6.884
365.0	3081	3895	4303	3953	3255	1981	1195	1013	923.2	994.0	1166	1376	1485	1458	1277	1034	863.0	676.5	491.7	403.1	440.3	368.8	224.7	150.2	93.88	75.28	164.9	1033	4082	3031	47.60	4.208	2.775	2.402	2.198	1.985	2.503	2.688	2.933	2.861	3.369	3.784	4.109	4.737	5.722	6.972	8.091	9.830	10.79	10.28	10.24	12.02	12.16	10.63	8.132	5.870	4.918	4.422	4.633	4.446	4.416	4.241	4.243	4.938	5.165	5.429	5.996	6.339	7.198	7.178	7.299	7.586	7.242	7.345	6.558	6.342	5.722
370.0	2504	3141	3539	3303	2757	1661	990.1	840.3	765.1	806.6	942.0	1102	1193	1175	1049	857.9	725.1	582.4	434.8	347.6	322.5	350.7	295.5	156.8	77.48	49.82	57.71	246.4	1216	3410	3268	756.6	13.56	3.026	2.509	2.200	2.259	2.413	2.429	2.738	2.934	3.143	3.498	4.018	4.633	5.695	6.433	7.934	8.386	8.424	8.657	10.01	9.806	9.028	6.969	5.090	4.118	3.884	3.899	3.732	3.654	3.298	3.825	3.994	4.093	4.458	4.782	5.125	5.598	5.771	5.925	5.926	6.126	6.015	5.249	5.209	4.871
375.0	2025	2469	2725	2655	2250	1382	822.6	679.0	616.8	650.7	750.3	875.0	940.6	923.2	824.5	688.1	591.7	493.7	376.9	303.2	264.7	251.7	306.5	222.5	85.66	47.69	37.79	73.42	284.7	813.5	2451	3905	330.0	11.59	3.023	2.516	2.375	2.139	2.285	2.443	2.374	2.788	2.840	3.118	3.785	4.689	5.271	6.331	6.624	6.433	6.749	8.024	8.078	7.194	5.759	4.237	3.519	3.292	3.131	3.026	2.892	2.787	2.959	3.152	3.477	3.652	3.944	3.964	4.293	4.726	4.636	4.793	4.923	4.842	4.419	4.133	4.319
380.0	1702	2040	2236	2179	1846	1175	696.7	583.2	529.1	545.4	628.9	716.8	773.5	759.2	686.4	579.0	508.2	431.6	338.0	275.4	234.1	207.1	236.3	259.2	125.0	53.98	37.75	38.01	80.37	195.6	668.2	3068	2793	246.0	5.339	2.917	2.448	2.419	1.918	2.071	2.015	2.484	2.544	2.826	2.908	3.814	4.403	5.309	5.416	5.460	5.502	6.602	6.754	6.327	5.020	3.554	3.088	2.980	2.735	2.557	2.664	2.298	2.483	2.822	2.909	3.177	3.410	3.368	3.347	3.730	4.035	3.961	3.774	3.955	3.764	3.591	3.591
385.0	1404	1695	1857	1825	1543	1004	616.6	505.7	466.5	475.4	535.0	610.0	649.2	638.9	587.6	493.0	441.1	378.9	311.8	256.4	217.1	189.3	183.8	220.6	187.2	65.37	42.18	34.01	37.40	59.00	162.5	936.1	3426	2326	37.55	3.595	2.752	2.362	1.937	1.973	1.917	2.188	2.351	2.441	2.645	3.309	3.649	4.464	4.764	4.466	4.609	5.649	5.714	5.410	4.247	3.178	2.746	2.567	2.280	2.403	2.330	2.099	2.076	2.255	2.545	2.605	2.642	2.882	2.928	3.227	3.295	3.315	3.276	3.364	3.007	2.949	3.062
390.0	1184	1376	1532	1498	1312	862.3	546.5	454.8	411.7	413.3	457.5	514.6	543.9	530.5	489.9	419.0	381.2	336.2	280.5	240.6	205.6	180.4	166.3	157.7	178.0	142.4	67.23	40.31	33.39	33.53	51.42	221.5	1023	2435	2365	160.0	10.88	2.647	2.263	1.990	1.867	2.040	2.035	2.004	2.303	2.817	3.030	3.537	3.826	3.794	3.972	4.690	4.724	4.572	3.543	2.670	2.374	2.174	2.059	2.026	1.924	1.868	1.960	1.907	2.142	2.149	2.344	2.390	2.523	2.769	2.603	2.870	2.708	2.863	2.670	2.586	2.740
395.0	986.2	1185	1254	1214	1083	743.0	495.7	409.3	370.8	373.4	401.4	433.0	449.4	445.9	412.1	359.1	330.2	298.2	259.7	226.9	195.9	175.7	159.7	137.9	127.8	157.1	133.0	56.33	39.61	33.20	30.71	62.92	238.4	583.8	1776	2351	266.3	9.374	2.503	2.085	1.950	2.032	1.803	1.934	2.028	2.390	2.524	2.951	3.296	3.375	3.256	3.828	3.772	3.690	3.048	2.498	2.111	2.068	1.792	1.764	1.943	1.611	1.848	1.766	1.859	2.062	2.170	1.992	2.084	2.342	2.286	2.283	2.338	2.322	2.318	2.055	2.457
400.0	907.7	1031	1088	1059	963.6	672.7	461.7	382.8	350.7	352.7	372.0	393.6	406.7	389.7	365.7	324.4	298.9	275.2	246.4	218.3	193.0	172.8	156.7	136.0	111.7	123.0	161.7	98.47	47.57	36.71	29.45	30.81	64.79	139.5	488.6	2097	2236	208.5	4.413	2.229	2.007	1.926	1.845	1.789	1.969	2.294	2.227	2.642	2.808	2.739	2.837	3.304	3.457	3.264	2.660	2.172	1.904	2.017	1.785	1.663	1.807	1.596	1.795	1.528	1.731	1.686	1.861	1.922	2.077	2.102	2.022	2.141	2.119	2.098	2.115	1.899	2.141
405.0	817.2	921.2	988.4	958.0	860.2	623.0	448.0	371.6	332.0	332.5	348.6	366.7	376.6	362.0	332.8	303.1	278.3	261.1	236.6	211.1	185.3	172.4	158.9	137.1	113.9	103.1	138.0	142.0	61.85	42.11	32.85	25.75	28.10	40.94	117.8	642.7	2538	1913	32.93	2.887	2.270	1.985	1.679	1.873	1.995	2.103	2.052	2.446	2.436	2.417	2.611	2.902	3.077	3.089	2.339	2.116	1.818	1.952	1.763	1.711	1.528	1.578	1.646	1.641	1.592	1.671	1.778	1.798	1.891	1.970	1.929	2.084	2.043	1.872	1.964	1.637	1.972
410.0	754.5	802.2	860.5	849.1	761.2	571.7	420.1	359.2	327.4	316.9	329.1	344.9	346.4	323.4	299.7	273.4	253.2	241.3	224.0	202.1	181.3	167.5	155.0	137.3	116.3	101.9	102.5	130.5	119.2	64.15	39.22	28.42	23.49	21.50	35.57	151.6	753.0	1892	1683	148.0	9.168	2.109	1.886	1.722	1.760	1.979	1.879	2.110	2.261	2.204	2.253	2.647	2.826	2.496	2.307	1.990	1.812	1.757	1.685	1.762	1.509	1.423	1.574	1.632	1.553	1.482	1.648	1.660	1.699	1.721	1.717	1.874	1.784	1.757	1.670	1.776	1.713
415.0	678.1	721.7	764.4	745.1	684.0	525.8	405.6	349.5	316.3	299.6	318.8	320.1	318.4	293.4	269.8	248.1	235.0	225.4	210.3	193.4	174.0	161.1	154.7	136.2	117.7	103.1	94.16	96.33	122.6	110.9	52.50	32.99	25.15	20.04	19.26	42.45	174.7	452.4	1237	1958	230.1	8.076	2.181	1.773	1.915	1.843	1.748	1.963	2.009	2.049	2.180	2.335	2.559	2.136	2.064	1.874	1.747	1.801	1.675	1.656	1.599	1.465	1.402	1.536	1.424	1.445	1.573	1.561	1.570	1.454	1.683	1.571	1.527	1.656	1.633	1.626	1.643
420.0	660.9	686.7	710.9	692.6	628.5	485.4	400.5	346.9	308.8	294.4	302.3	302.1	294.7	268.1	252.2	235.7	218.7	213.3	200.3	183.3	168.9	155.5	150.7	138.1	118.8	105.1	92.12	85.90	96.98	125.5	80.45	39.94	27.23	20.57	17.53	19.28	46.32	107.2	337.4	1552	1750	35.82	3.762	2.249	1.951	1.998	1.727	1.852	1.825	1.883	1.954	2.341	2.372	2.054	2.036	1.556	1.753	1.729	1.730	1.559	1.512	1.526	1.391	1.496	1.460	1.432	1.214	1.460	1.507	1.418	1.608	1.492	1.437	1.541	1.498	1.535	1.471
425.0	638.5	656.3	666.3	650.7	573.2	481.7	398.5	350.5	315.3	292.0	289.9	290.2	284.8	256.3	240.9	221.6	208.6	203.7	193.2	177.7	163.4	152.3	146.2	135.0	118.5	105.4	93.89	84.15	82.05	106.3	109.9	53.26	31.35	23.31	18.01	15.71	18.79	30.46	81.49	467.6	1730	1412	30.46	2.811	1.991	1.920	1.929	1.832	1.931	1.945	1.800	2.126	2.156	2.058	2.022	1.505	1.741	1.696	1.739	1.428	1.513	1.643	1.419	1.559	1.478	1.460	1.313	1.478	1.473	1.302	1.498	1.524	1.355	1.553	1.557	1.359	1.422
430.0	907.9	609.8	609.7	604.2	565.6	476.3	406.0	367.9	322.9	285.9	276.5	275.4	263.6	247.3	225.4	209.6	202.6	195.6	186.5	172.6	155.4	146.0	139.4	131.1	117.5	105.9	95.44	86.18	79.20	80.28	98.69	87.90	45.28	28.10	20.72	16.95	14.89	14.83	24.30	110.0	498.3	1302	1326	139.3	8.995	2.300	1.792	1.891	1.865	1.707	1.709	2.043	1.905	1.920	2.041	1.768	1.841	1.703	1.780	1.556	1.534	1.549	1.431	1.472	1.403	1.381	1.383	1.301	1.252	1.336	1.383	1.351	1.420	1.423	1.410	1.322	1.390
435.0	1958	615.4	592.1	570.0	550.8	483.3	432.5	384.7	328.5	283.5	264.6	261.6	249.1	231.0	213.6	200.7	193.0	187.9	176.9	164.4	150.3	139.4	133.6	127.1	114.7	105.5	96.30	88.99	83.20	76.73	74.86	88.18	77.77	41.30	25.17	20.39	16.37	13.58	13.30	30.52	115.8	308.4	901.2	1653	225.0	11.49	2.055	1.955	1.905	1.645	1.696	1.989	1.942	1.975	2.063	1.982	1.878	1.825	1.743	1.547	1.539	1.637	1.433	1.330	1.315	1.227	1.308	1.338	1.241	1.169	1.183	1.409	1.351	1.401	1.330	1.344	1.437
440.0	2861	766.7	570.6	551.6	537.5	491.7	448.4	394.5	338.8	286.2	260.2	253.1	239.3	223.8	209.5	193.9	187.3	183.8	176.4	160.8	146.0	134.2	128.5	124.7	111.2	103.9	96.99	90.30	84.23	76.62	69.77	70.40	88.41	60.63	30.57	21.71	17.43	13.41	11.67	13.07	31.19	73.50	241.9	1222	1505	201.3	4.861	2.096	1.952	1.735	1.601	1.948	1.951	2.105	1.803	1.951	2.091	1.799	1.828	1.752	1.624	1.638	1.486	1.288	1.400	1.192	1.343	1.166	1.162	1.250	1.183	1.437	1.248	1.260	1.344	1.185	1.366
445.0	2999	1337	543.3	521.7	517.5	483.7	457.3	416.6	350.0	278.5	250.0	240.3	235.8	213.1	203.4	190.3	185.7	183.2	173.2	157.9	140.3	128.2	123.9	118.0	108.3	103.0	98.12	90.03	85.82	76.89	68.15	62.28	74.20	75.98	41.65	24.24	18.65	14.15	11.76	10.41	12.79	21.30	58.43	354.3	1370	1655	28.02	3.196	1.916	1.570	1.615	1.833	1.944	2.003	1.959	2.014	2.045	2.092	1.921	1.830	1.654	1.584	1.543	1.307	1.225	1.073	1.276	1.139	1.125	1.238	1.110	1.302	1.198	1.153	1.478	1.316	1.247
450.0	1861	2388	754.8	505.7	499.8	480.3	463.8	416.4	340.7	268.8	232.1	224.9	214.8	200.0	186.9	177.7	175.3	169.1	163.8	148.7	129.8	119.2	115.1	109.0	103.6	98.79	92.17	89.03	84.04	77.61	68.62	60.45	57.43	66.55	61.96	34.69	21.01	15.90	12.44	10.58	9.616	9.877	17.51	82.73	379.9	1263	1231	379.9	9.191	1.761	1.599	1.870	1.970	1.990	2.057	1.940	2.054	2.000	2.151	1.796	1.657	1.574	1.552	1.303	1.191	1.054	1.025	1.063	1.124	1.138	1.116	1.319	1.145	1.154	1.192	1.237	1.139
455.0	827.6	2384	1566	493.0	460.6	453.4	448.4	409.3	325.7	253.9	213.5	200.6	195.5	183.6	171.4	164.3	161.1	156.7	153.4	138.1	119.8	108.0	103.9	101.6	94.91	93.20	87.55	84.22	81.38	75.37	68.40	59.23	51.84	48.88	57.84	53.20	29.42	16.81	13.44	10.90	9.652	8.037	8.405	22.15	88.00	292.1	661.7	1383	202.5	10.82	1.787	2.035	2.022	1.901	1.922	1.908	1.875	2.057	2.111	1.708	1.778	1.565	1.491	1.135	1.256	1.073	0.985	0.992	1.036	0.996	1.077	1.176	0.947	0.972	1.090	1.139	1.066
460.0	508.2	1534	2418	642.0	437.9	440.7	428.7	395.6	310.2	236.9	201.1	186.3	175.9	169.5	158.1	152.7	150.6	149.8	142.7	129.4	109.4	99.26	95.34	94.19	89.11	85.17	83.60	80.93	77.80	73.64	66.48	58.60	48.63	42.02	44.42	54.88	39.59	19.39	13.86	10.93	9.565	8.143	6.474	8.758	22.71	68.43	165.4	831.0	1272	161.2	6.588	2.023	2.066	1.681	1.926	1.874	1.883	1.889	1.983	1.696	1.642	1.468	1.302	1.083	0.968	1.131	0.884	0.932	0.924	0.868	0.995	1.128	0.946	1.014	0.912	1.073	1.038
465.0	426.0	776.0	2505	929.1	415.5	423.4	419.2	374.2	294.9	224.5	187.5	170.1	168.8	155.8	146.0	141.2	141.9	137.9	131.1	119.2	100.6	90.89	88.58	86.67	81.88	80.44	79.17	76.69	71.99	69.54	64.01	57.75	46.59	39.89	37.59	44.27	46.06	25.89	14.91	11.26	9.735	8.120	6.801	6.147	8.227	18.34	39.65	221.8	1000	1049	131.2	3.782	2.113	1.839	1.826	1.835	1.883	1.878	1.907	1.738	1.515	1.546	1.133	1.080	0.910	0.993	0.886	0.813	0.900	0.793	1.001	1.041	0.886	0.981	0.844	0.990	0.878
470.0	418.0	462.7	1467	2089	558.9	385.3	379.2	347.1	268.2	202.6	166.9	152.9	149.4	140.1	131.7	126.6	125.0	124.6	119.5	105.8	89.52	79.47	77.82	75.78	73.01	72.00	70.63	70.22	66.68	63.56	59.91	52.27	44.36	36.96	33.03	31.38	37.47	35.65	20.89	12.40	9.537	7.849	6.569	5.866	5.266	7.082	11.33	52.10	261.4	676.0	884.4	368.6	11.33	2.005	1.880	1.723	1.861	1.836	1.873	1.554	1.340	1.351	1.054	0.993	0.872	0.864	0.835	0.790	0.827	0.794	0.844	0.857	0.782	0.831	0.834	0.820	0.874
475.0	438.7	354.6	621.6	2061	1434	361.6	340.0	308.3	239.2	184.2	147.0	138.4	130.2	122.5	114.9	110.1	111.0	109.1	102.8	92.92	79.17	69.66	67.54	65.61	64.76	62.31	63.26	60.44	60.21	57.80	52.63	47.03	40.65	34.00	29.85	25.96	24.78	31.21	29.67	16.41	9.599	7.752	6.402	5.410	4.920	4.732	5.075	13.73	60.10	153.8	351.1	931.5	209.6	15.32	1.834	1.697	1.809	1.633	1.637	1.429	1.167	1.206	1.001	0.893	0.872	0.810	0.839	0.726	0.827	0.785	0.666	0.658	0.742	0.722	0.764	0.725	0.778
480.0	401.7	347.6	355.1	1256	2190	496.0	310.6	289.0	222.2	165.8	130.3	122.9	121.6	109.4	104.3	101.8	98.85	98.57	92.03	83.43	69.87	63.46	61.65	60.06	58.68	58.30	58.13	56.19	55.03	53.76	49.60	43.99	38.82	32.78	28.05	23.22	20.50	22.17	30.05	22.54	11.26	7.653	6.453	5.322	4.799	4.522	3.587	5.164	15.24	36.21	83.28	436.4	870.1	199.3	9.738	1.825	1.639	1.708	1.555	1.358	1.112	1.091	0.885	0.867	0.772	0.732	0.707	0.677	0.778	0.639	0.663	0.587	0.674	0.694	0.714	0.646	0.670
485.0	333.7	359.8	291.1	614.0	2304	1041	292.2	261.7	207.1	155.4	123.1	116.6	109.4	100.8	94.45	90.33	89.31	88.90	85.42	76.46	64.73	57.61	56.22	53.83	53.59	54.19	52.89	51.67	51.19	49.09	46.54	41.06	35.95	31.29	26.58	21.75	19.81	17.78	23.02	26.08	15.87	8.635	6.148	5.017	4.310	4.319	3.647	3.363	5.249	9.875	20.47	109.1	543.6	860.2	160.6	4.839	1.775	1.439	1.471	1.307	1.126	1.036	0.941	0.705	0.755	0.637	0.675	0.643	0.694	0.565	0.645	0.653	0.622	0.732	0.698	0.643	0.607
490.0	259.3	368.3	274.1	317.9	1337	2003	414.7	237.5	185.0	138.6	110.8	103.7	96.93	90.34	84.25	79.07	81.29	79.43	75.72	68.31	57.58	51.23	50.42	48.80	49.30	48.44	47.26	47.05	46.37	44.02	42.53	37.88	33.06	28.07	24.53	20.70	18.07	15.13	15.78	21.07	21.12	12.53	6.844	5.079	4.436	4.145	3.751	3.361	3.090	3.947	6.331	26.19	134.8	442.2	727.9	345.2	13.76	1.820	1.453	1.333	1.105	1.030	0.853	0.740	0.699	0.639	0.581	0.637	0.625	0.559	0.625	0.618	0.537	0.657	0.584	0.576	0.641
495.0	213.2	303.8	294.4	227.0	500.9	1984	1325	223.8	159.9	124.6	98.24	89.57	85.81	79.65	74.53	70.85	70.81	69.75	65.88	58.84	49.47	45.49	44.71	42.50	42.74	41.52	40.92	42.29	41.37	40.24	38.65	33.89	29.82	25.59	22.44	19.34	16.37	13.59	12.98	13.46	18.35	18.30	9.833	5.441	4.406	3.802	3.670	3.689	3.201	2.956	3.005	7.789	31.81	100.8	268.8	764.9	513.3	19.77	1.825	1.259	0.978	0.902	0.818	0.739	0.636	0.582	0.628	0.525	0.525	0.517	0.576	0.608	0.561	0.535	0.557	0.574	0.529
500.0	197.5	231.8	301.3	204.5	259.1	1187	2202	343.9	142.7	109.8	89.10	81.44	76.41	71.32	67.14	62.54	62.70	58.77	58.31	53.06	44.02	41.28	39.58	38.67	38.28	37.45	37.17	36.75	36.96	35.19	34.06	30.44	27.16	23.81	20.76	17.71	15.39	12.82	11.30	10.71	12.83	18.68	13.70	7.052	4.577	3.995	3.760	3.471	3.515	2.903	2.535	3.503	9.002	24.20	63.36	315.1	848.4	227.6	15.41	1.311	1.063	0.819	0.821	0.688	0.500	0.555	0.582	0.548	0.468	0.489	0.462	0.560	0.404	0.400	0.493	0.466	0.489
505.0	159.3	175.2	285.6	214.4	188.6	532.5	2345	855.1	135.9	97.07	82.13	73.71	68.42	63.22	59.54	56.57	55.18	53.12	51.99	47.94	39.06	36.38	34.46	34.94	34.59	33.73	33.19	34.45	33.24	32.77	30.65	28.21	24.94	21.63	19.83	16.12	14.38	12.37	10.85	9.599	9.697	14.19	16.63	10.33	5.102	4.156	3.718	3.397	3.175	3.084	2.673	2.520	3.826	7.081	16.04	76.09	422.9	794.3	213.8	7.025	1.017	0.765	0.697	0.688	0.463	0.508	0.551	0.502	0.464	0.397	0.466	0.463	0.434	0.433	0.384	0.511	0.407
510.0	134.5	135.9	207.0	237.5	158.7	238.9	1339	1958	248.7	88.24	73.59	65.21	60.03	55.15	51.51	48.07	47.99	46.41	44.15	39.71	33.98	31.68	30.40	30.01	29.81	29.38	28.84	29.53	29.29	28.79	27.27	24.96	22.04	19.19	16.97	14.92	12.95	11.26	9.710	8.567	7.854	9.326	13.51	13.80	7.807	4.576	3.673	3.483	3.070	3.082	2.877	2.591	2.633	3.458	5.407	18.79	101.8	357.5	956.2	306.3	14.05	1.221	0.744	0.702	0.490	0.510	0.450	0.407	0.453	0.485	0.451	0.449	0.402	0.387	0.348	0.423	0.408
515.0	111.6	112.7	138.0	234.7	168.6	151.0	442.1	2080	1081	90.20	60.94	56.99	51.55	48.64	43.17	41.44	41.57	38.92	36.83	33.39	28.73	27.19	26.62	25.01	26.20	25.07	24.98	24.70	24.36	24.62	23.91	21.59	19.15	16.80	14.70	13.08	11.37	10.02	9.054	7.795	7.125	6.924	7.966	12.09	11.67	6.655	3.864	3.404	2.871	2.534	2.769	2.966	2.632	2.438	2.907	5.820	24.23	81.12	306.9	590.4	239.6	19.70	0.853	0.568	0.529	0.499	0.387	0.445	0.469	0.347	0.431	0.406	0.294	0.317	0.355	0.465	0.393
520.0	101.4	103.6	109.8	189.0	198.9	118.9	187.3	1284	2022	196.4	57.59	49.48	45.60	42.50	37.82	36.76	36.59	33.77	32.33	30.25	25.32	23.55	23.46	22.57	22.61	22.17	21.73	22.25	21.90	22.40	20.60	19.23	16.77	14.94	13.14	11.90	10.19	9.526	8.409	7.370	6.401	6.147	5.817	8.423	11.71	9.255	4.526	3.097	2.804	2.537	2.461	2.918	2.739	2.197	2.180	2.615	6.768	19.36	70.99	233.1	599.7	220.2	12.24	0.815	0.557	0.505	0.473	0.381	0.324	0.318	0.400	0.331	0.295	0.303	0.369	0.366	0.356
525.0	92.50	94.03	94.72	140.1	199.5	113.4	115.6	524.5	2391	649.0	52.69	47.45	42.79	39.10	34.67	32.26	31.72	30.35	28.34	24.96	22.66	21.02	20.50	20.17	19.67	19.94	18.88	20.36	19.23	19.63	18.18	17.32	15.39	13.77	12.31	10.85	9.476	8.511	7.518	6.770	5.530	5.219	5.652	5.958	9.358	10.94	6.281	3.227	2.809	2.474	2.305	2.589	2.721	2.210	1.871	1.741	2.725	5.480	17.08	55.50	292.1	567.4	176.0	5.303	0.590	0.564	0.353	0.377	0.332	0.340	0.350	0.353	0.302	0.311	0.322	0.354	0.314
530.0	77.97	77.21	78.31	91.05	177.8	140.5	89.24	183.2	1403	1805	155.3	40.93	36.82	34.50	30.24	27.24	28.06	26.31	24.41	21.58	19.53	17.98	18.04	16.65	17.27	16.84	16.82	17.37	16.53	16.55	16.05	14.46	13.45	11.82	10.79	9.208	8.329	7.518	6.789	6.216	5.256	5.133	4.658	4.584	5.854	8.900	8.521	4.900	2.953	2.333	2.134	2.127	2.076	2.405	2.040	1.559	1.704	2.204	4.788	13.27	69.35	244.9	434.8	234.5	13.20	0.718	0.409	0.422	0.364	0.313	0.326	0.351	0.256	0.252	0.274	0.266	0.273
535.0	65.14	60.26	61.04	66.75	113.0	174.9	85.61	90.83	413.3	2041	901.9	44.44	31.71	30.24	25.92	23.34	23.16	22.39	20.15	18.70	16.80	15.60	14.82	14.44	14.24	13.76	14.70	14.68	14.69	14.39	13.60	12.61	11.39	10.18	9.193	8.026	7.037	6.541	6.252	5.310	4.780	4.511	4.115	3.835	4.216	5.202	8.016	7.098	3.776	2.233	2.099	1.781	1.837	2.101	2.115	1.859	1.216	1.350	1.935	3.772	16.10	55.39	133.2	435.7	232.9	17.71	0.536	0.397	0.381	0.311	0.292	0.374	0.238	0.252	0.235	0.260	0.256
540.0	63.46	53.63	57.59	56.56	76.82	161.6	96.96	65.20	132.9	1225	1831	112.8	29.08	25.86	22.32	20.37	19.67	18.70	17.85	15.64	14.24	12.93	13.07	12.18	12.39	11.61	11.74	12.86	12.66	12.26	11.66	10.72	10.35	9.278	7.657	7.257	6.446	5.712	5.524	4.706	4.369	4.040	3.460	3.463	3.349	3.622	5.624	7.119	4.922	2.545	2.066	1.920	1.696	1.753	1.865	2.000	1.402	1.203	1.146	1.484	4.207	13.08	30.87	165.5	420.8	196.5	10.28	0.527	0.360	0.306	0.286	0.258	0.229	0.223	0.230	0.238	0.240
545.0	58.75	47.12	49.61	51.62	51.72	133.3	121.6	55.40	63.89	457.7	2233	443.8	27.47	24.27	20.05	18.31	16.98	16.77	15.67	13.88	12.83	11.23	11.35	11.12	11.95	10.85	10.59	11.08	11.00	10.99	10.29	9.369	9.355	8.154	7.064	6.285	5.783	5.228	4.864	4.393	4.212	3.556	3.360	3.189	2.844	3.086	3.536	5.784	5.863	3.411	2.039	1.589	1.514	1.416	1.372	1.634	1.628	1.133	1.031	0.963	1.479	3.571	7.487	39.02	191.6	412.5	142.3	4.013	0.400	0.301	0.305	0.365	0.247	0.208	0.249	0.221	0.240
550.0	48.41	46.60	46.29	41.18	41.86	75.35	138.4	62.93	42.79	134.6	1265	1484	92.58	20.60	16.85	14.81	14.26	14.10	13.00	11.53	10.36	9.453	9.507	9.252	9.026	8.943	9.196	9.105	9.403	8.836	8.384	7.829	7.642	6.513	5.886	5.284	4.765	4.231	4.095	3.701	3.451	3.118	2.997	2.653	2.683	2.514	2.621	3.546	5.325	4.553	2.651	1.531	1.324	1.227	1.219	1.295	1.508	1.486	1.050	0.750	0.803	1.235	2.152	9.187	45.07	169.0	295.3	136.2	12.63	0.455	0.303	0.321	0.226	0.218	0.206	0.192	0.235
555.0	50.36	41.06	43.48	35.95	34.61	40.65	110.0	99.51	34.04	53.68	352.3	1817	641.0	19.13	15.02	12.68	11.69	11.02	10.47	9.270	8.325	7.498	7.459	7.656	7.651	7.294	7.204	7.355	7.298	6.990	7.115	6.374	6.061	5.237	4.660	4.360	4.126	3.481	3.222	2.990	2.975	2.700	2.357	2.136	2.278	2.101	1.880	2.112	3.093	4.439	3.666	2.051	1.232	1.102	1.022	0.946	0.927	1.268	1.306	0.776	0.583	0.628	0.865	2.418	10.42	38.10	88.09	256.7	204.8	15.85	0.412	0.445	0.256	0.225	0.225	0.175	0.237
560.0	52.01	43.16	36.64	33.00	26.14	29.47	68.51	121.6	36.80	31.66	102.5	1111	1392	58.08	12.96	11.14	9.761	9.409	8.821	7.330	7.322	6.594	6.502	6.254	6.245	6.185	5.978	5.899	6.188	5.786	6.106	5.502	5.015	4.615	4.137	3.763	3.619	3.003	3.017	2.576	2.573	2.243	2.155	2.133	1.907	1.824	1.705	1.675	1.846	3.202	3.805	2.392	1.303	1.120	0.927	0.789	0.826	0.880	1.280	1.014	0.645	0.572	0.585	0.895	2.734	8.917	20.38	95.38	278.0	139.7	6.951	0.459	0.231	0.267	0.215	0.164	0.177
565.0	51.58	43.04	36.07	32.11	23.17	24.91	43.11	116.3	52.11	25.90	43.42	406.6	1896	153.4	12.28	10.11	8.834	8.532	7.512	7.068	6.157	5.753	5.389	5.148	5.322	5.486	5.212	4.975	5.572	5.017	5.061	4.622	4.272	4.034	3.524	3.066	3.020	2.826	2.402	2.214	2.186	1.990	1.858	1.811	1.778	1.670	1.447	1.409	1.527	2.052	3.106	2.714	1.638	0.943	0.802	0.702	0.740	0.714	0.836	1.326	0.741	0.548	0.471	0.541	0.973	2.261	4.909	22.43	119.5	246.2	33.75	3.125	0.266	0.210	0.221	0.193	0.166
570.0	52.66	45.02	34.85	26.30	21.46	21.20	26.19	80.49	87.41	29.28	28.99	117.5	1149	1035	48.92	9.044	7.258	6.994	5.932	5.667	5.213	4.794	4.575	4.164	4.277	4.286	4.005	4.329	4.377	4.285	4.104	4.000	3.733	3.227	2.922	2.493	2.634	2.260	2.152	1.888	1.897	1.695	1.556	1.435	1.450	1.365	1.252	1.119	1.178	1.186	1.849	2.650	2.076	1.188	0.781	0.657	0.583	0.564	0.643	0.905	1.007	0.669	0.420	0.430	0.519	0.754	1.383	5.317	28.11	98.75	158.7	141.2	9.377	0.306	0.187	0.190	0.208
575.0	58.92	44.52	36.61	25.56	19.54	18.73	19.99	43.45	105.7	47.32	27.68	47.86	325.4	1393	358.7	9.187	6.644	5.560	5.076	4.850	3.741	3.775	3.616	3.505	3.432	3.636	3.394	3.723	3.494	3.434	3.233	3.299	3.083	2.743	2.424	2.137	2.088	1.990	1.594	1.479	1.694	1.550	1.357	1.345	1.267	1.140	1.015	0.978	0.997	0.920	1.056	1.617	2.014	1.656	0.886	0.590	0.533	0.470	0.506	0.582	0.782	0.976	0.549	0.527	0.328	0.413	0.562	1.484	6.559	22.31	47.83	302.5	110.8	9.044	0.247	0.217	0.186
580.0	50.69	52.46	37.60	22.59	17.93	17.85	17.85	25.23	88.68	70.21	28.92	34.07	94.34	877.4	907.9	25.29	5.992	5.079	4.437	4.005	3.662	3.353	3.157	3.100	2.747	2.727	2.789	2.920	3.011	2.910	2.544	2.770	2.561	2.410	1.977	1.969	1.705	1.580	1.542	1.416	1.326	1.397	1.049	1.174	1.136	0.968	0.921	1.013	0.780	0.787	0.796	1.002	1.667	1.852	1.102	0.645	0.519	0.462	0.476	0.415	0.563	0.790	0.820	0.492	0.349	0.379	0.449	0.674	1.730	5.240	11.06	115.2	152.4	35.07	3.564	0.222	0.164
585.0	52.76	52.24	36.57	22.07	18.20	16.84	15.62	20.54	60.25	99.90	34.12	32.22	41.35	323.3	1266	99.05	5.715	4.411	3.981	3.235	3.347	2.900	2.871	2.615	2.472	2.263	2.502	2.550	2.554	2.430	2.295	2.387	2.146	2.098	1.884	1.830	1.768	1.444	1.461	1.328	1.096	1.044	1.006	0.963	0.933	0.900	0.854	0.848	0.679	0.746	0.633	0.619	1.072	1.696	1.403	0.793	0.498	0.493	0.439	0.392	0.398	0.555	1.009	0.732	0.378	0.355	0.371	0.364	0.711	1.482	2.742	26.80	67.84	138.5	29.81	1.322	0.148
590.0	61.09	51.93	38.52	25.09	17.74	16.81	16.33	19.27	37.42	97.68	59.33	32.88	31.73	92.49	775.2	643.0	25.96	4.215	3.623	3.002	2.712	2.582	2.425	2.273	2.206	1.889	2.015	2.173	2.170	1.979	1.920	1.800	1.727	1.590	1.664	1.554	1.398	1.233	1.158	1.025	1.005	0.910	0.897	0.772	0.807	0.777	0.719	0.738	0.687	0.610	0.544	0.526	0.727	1.044	1.309	1.199	0.579	0.451	0.423	0.357	0.424	0.429	0.605	0.810	0.602	0.368	0.386	0.369	0.422	0.591	0.815	6.259	16.05	58.13	94.05	55.80	7.045
595.0	70.93	63.42	46.42	32.08	21.34	17.73	18.92	23.74	29.63	72.94	98.06	43.11	38.29	40.20	218.7	922.4	98.79	5.087	2.966	2.631	2.267	2.008	1.939	1.814	1.775	1.527	1.629	1.792	1.828	1.606	1.606	1.336	1.357	1.275	1.370	1.316	1.349	1.015	0.840	0.868	0.840	0.807	0.856	0.668	0.665	0.815	0.651	0.567	0.558	0.565	0.479	0.445	0.514	0.557	1.029	1.187	0.799	0.509	0.339	0.422	0.402	0.410	0.425	0.581	0.742	0.630	0.403	0.394	0.338	0.427	0.430	1.666	3.868	13.19	28.17	84.76	72.65
600.0	71.87	76.13	61.32	35.74	25.38	24.00	24.47	27.02	33.53	54.61	113.1	65.08	47.88	36.72	69.14	608.1	546.4	13.26	3.041	2.416	1.988	1.936	1.784	1.393	1.496	1.440	1.402	1.428	1.470	1.467	1.240	1.243	1.286	1.210	1.225	1.154	1.013	0.931	0.818	0.833	0.836	0.712	0.699	0.771	0.596	0.599	0.658	0.551	0.584	0.573	0.495	0.399	0.483	0.433	0.759	1.050	0.987	0.657	0.447	0.361	0.397	0.384	0.357	0.398	0.660	0.846	0.522	0.452	0.415	0.458	0.455	0.624	1.143	3.217	6.628	31.55	95.06
605.0	95.61	85.01	77.37	45.87	34.90	33.59	36.54	39.01	47.54	63.00	122.3	110.0	70.06	52.94	47.18	243.0	835.5	63.67	3.446	2.074	1.887	1.950	1.449	1.316	1.534	1.212	1.220	1.262	1.375	1.280	1.212	1.081	1.040	1.036	1.105	1.042	1.146	0.878	0.784	0.677	0.662	0.669	0.625	0.621	0.607	0.644	0.721	0.575	0.539	0.544	0.549	0.405	0.393	0.384	0.578	0.784	1.058	0.821	0.520	0.367	0.416	0.407	0.409	0.432	0.526	0.927	0.748	0.630	0.500	0.532	0.460	0.486	0.598	1.016	1.741	7.600	40.65
610.0	121.5	118.4	102.0	68.22	52.58	52.76	58.08	66.45	81.65	103.9	149.5	184.2	128.4	97.71	78.05	106.8	586.7	424.3	13.63	2.230	1.821	1.625	1.338	1.253	1.306	1.135	1.086	1.031	1.175	1.175	1.065	1.044	1.055	1.035	0.953	0.899	0.956	0.887	0.782	0.694	0.632	0.601	0.624	0.606	0.609	0.656	0.664	0.610	0.559	0.504	0.477	0.450	0.392	0.442	0.464	0.587	0.831	1.020	0.778	0.562	0.497	0.542	0.602	0.600	0.639	0.859	1.089	1.068	0.753	0.736	0.694	0.716	0.630	0.758	0.848	2.121	9.706
615.0	131.4	134.5	120.4	84.59	61.07	65.80	73.69	83.47	98.04	124.8	159.1	212.9	176.0	127.5	98.23	82.92	212.4	645.9	74.32	2.590	1.486	1.388	0.952	1.205	1.040	1.037	1.011	0.938	1.027	1.061	0.809	1.075	0.928	0.954	0.879	0.944	0.824	0.862	0.757	0.635	0.593	0.561	0.564	0.606	0.552	0.561	0.539	0.634	0.533	0.421	0.483	0.465	0.440	0.441	0.394	0.497	0.710	1.009	0.915	0.855	0.508	0.696	0.719	0.785	0.785	0.799	0.944	0.979	1.073	0.878	0.868	0.862	0.633	0.694	0.646	0.963	2.651
620.0	138.5	157.1	130.0	88.62	68.33	70.64	74.65	85.00	95.60	122.3	153.0	196.2	192.8	136.9	103.9	78.71	101.6	463.1	336.4	6.028	1.406	1.237	0.916	1.036	1.096	0.883	0.912	0.874	0.950	0.803	0.895	0.808	0.727	0.785	0.909	0.842	0.818	0.653	0.752	0.602	0.522	0.522	0.569	0.528	0.504	0.593	0.618	0.689	0.548	0.508	0.420	0.417	0.438	0.397	0.438	0.483	0.674	0.794	0.922	0.881	0.620	0.605	0.623	0.723	0.781	0.718	0.926	0.970	1.222	1.047	0.914	0.853	0.728	0.634	0.593	0.608	1.022
625.0	147.6	165.6	129.7	100.7	72.69	69.39	83.33	86.96	95.85	122.2	148.0	186.0	205.8	144.0	109.6	78.33	76.34	203.6	558.4	35.55	1.533	1.185	0.939	0.981	0.913	0.797	0.776	0.815	0.706	0.694	0.786	0.695	0.631	0.701	0.709	0.653	0.603	0.584	0.714	0.677	0.595	0.527	0.418	0.519	0.488	0.497	0.534	0.596	0.577	0.514	0.388	0.413	0.452	0.466	0.456	0.495	0.530	0.725	0.766	0.876	0.686	0.555	0.684	0.787	0.724	0.801	0.918	0.891	1.211	1.130	1.134	0.880	0.819	0.712	0.622	0.613	0.657
630.0	157.2	173.8	140.4	105.0	80.52	74.02	89.66	94.66	97.32	121.0	147.8	178.2	201.4	164.7	116.1	81.45	70.46	77.35	398.0	266.2	5.249	1.237	1.038	0.920	0.782	0.734	0.650	0.793	0.568	0.663	0.615	0.614	0.499	0.571	0.546	0.616	0.536	0.526	0.516	0.703	0.574	0.530	0.462	0.472	0.485	0.549	0.517	0.660	0.535	0.490	0.435	0.451	0.423	0.531	0.436	0.464	0.516	0.565	0.591	0.740	0.730	0.636	0.676	0.718	0.760	0.774	0.828	0.907	1.054	1.086	1.052	0.881	0.849	0.787	0.682	0.644	0.551
635.0	182.2	193.9	156.7	120.5	89.04	82.23	90.50	94.50	99.55	121.5	144.3	174.8	189.9	182.7	124.3	83.60	70.22	46.04	121.3	455.1	51.09	1.669	0.991	0.877	0.640	0.616	0.479	0.611	0.442	0.545	0.605	0.513	0.389	0.496	0.500	0.507	0.566	0.544	0.379	0.581	0.642	0.478	0.460	0.505	0.474	0.443	0.619	0.661	0.571	0.553	0.463	0.504	0.480	0.526	0.479	0.479	0.482	0.582	0.595	0.570	0.736	0.661	0.627	0.723	0.720	0.933	0.897	0.860	1.007	1.040	1.010	1.036	0.844	0.788	0.625	0.692	0.444
640.0	177.5	198.3	166.4	119.1	89.29	85.50	91.58	94.46	98.71	118.4	147.4	175.5	179.6	181.7	132.3	85.42	69.10	37.90	36.06	345.4	214.2	3.719	0.926	0.762	0.692	0.527	0.624	0.565	0.478	0.566	0.554	0.502	0.354	0.487	0.411	0.480	0.498	0.501	0.417	0.513	0.484	0.481	0.376	0.451	0.441	0.555	0.588	0.584	0.537	0.519	0.412	0.437	0.479	0.489	0.476	0.448	0.460	0.650	0.558	0.504	0.688	0.743	0.582	0.729	0.736	0.775	0.906	0.869	0.994	1.017	0.987	1.155	0.946	0.800	0.715	0.730	0.441
645.0	186.6	201.8	177.8	115.8	84.33	83.09	90.51	92.22	94.34	116.2	145.1	167.0	174.2	173.0	138.5	85.47	67.63	36.60	16.50	149.1	375.1	24.61	1.096	0.810	0.666	0.604	0.466	0.508	0.557	0.389	0.461	0.466	0.395	0.459	0.432	0.380	0.499	0.449	0.456	0.444	0.400	0.595	0.510	0.435	0.423	0.576	0.521	0.626	0.567	0.502	0.442	0.387	0.408	0.412	0.439	0.364	0.504	0.541	0.501	0.497	0.603	0.658	0.708	0.659	0.795	0.801	0.857	0.887	0.928	0.835	0.882	1.004	1.056	0.811	0.656	0.732	0.616
650.0	206.7	220.8	200.1	122.6	81.29	77.27	83.38	89.41	91.16	109.3	140.4	159.7	168.0	157.2	136.5	84.26	64.57	35.05	11.89	44.16	364.2	68.76	1.322	0.936	0.553	0.541	0.447	0.544	0.477	0.378	0.387	0.450	0.350	0.479	0.379	0.352	0.490	0.528	0.359	0.379	0.439	0.516	0.542	0.530	0.460	0.572	0.579	0.705	0.571	0.494	0.423	0.394	0.387	0.396	0.431	0.368	0.437	0.525	0.581	0.508	0.566	0.531	0.681	0.730	0.712	0.794	0.781	0.802	0.906	0.859	0.790	0.916	1.073	0.896	0.701	0.631	0.566
