Sample:	'1
File name:	Default_20230203_102907.FD3
Run date:	'10:22:46, 02/03/2023
Operator:	user
Comment:	'

Instrument
Model:	F-2700 FL Spectrophotometer
Serial number:	2190-003
ROM Version:	4J14000 07

Instrument parameters
Measurement type:	3-D scan
Data mode:	Fluorescence
EX  Start WL:	220.0 nm
EX  End WL:	600.0 nm
EX Sampling interval:	5.0 nm
EM  Start WL:	230.0 nm
EM  End WL:	650.0 nm
EM Sampling interval:	5.0 nm
Scan speed:	12000 nm/min
EX Slit:	5.0 nm
EM Slit:	5.0 nm
PMT Voltage:	700 V
Response:	Auto 
Corrected spectra:	Off
Contour interval:	50.000

Peak integration
Integration method:	Rectangular
Sensitivity:	1
Threshold:	1.000

Peaks
No.	ApexEX/EM(nm)	Height(Data)
1	230.0/300.0	21.26
2	230.0/605.0	-97.61
3	240.0/260.0	145.5
4	240.0/480.0	 1052
5	240.0/520.0	75.99
6	245.0/265.0	160.8
7	245.0/365.0	778.5
8	245.0/530.0	58.68
9	250.0/445.0	301.1
10	250.0/545.0	45.54
11	255.0/280.0	450.6
12	255.0/555.0	55.75
13	260.0/445.0	327.1
14	260.0/565.0	79.94
15	265.0/345.0	510.5
16	265.0/430.0	313.3
17	270.0/295.0	 1950
18	270.0/420.0	324.3
19	270.0/450.0	317.7
20	270.0/465.0	282.6
21	270.0/590.0	135.4
22	275.0/240.0	-24.21
23	275.0/255.0	-16.25
24	275.0/305.0	 1874
25	275.0/435.0	329.9
26	275.0/600.0	113.3
27	280.0/370.0	368.6
28	280.0/615.0	63.61
29	285.0/260.0	-16.81
30	285.0/380.0	392.1
31	290.0/390.0	392.0
32	290.0/405.0	406.5
33	290.0/640.0	22.86
34	300.0/335.0	388.3
35	300.0/400.0	395.8
36	305.0/240.0	-8.170
37	305.0/340.0	415.5
38	310.0/245.0	-6.784
39	310.0/345.0	355.6
40	315.0/255.0	-7.368
41	315.0/350.0	296.0
42	320.0/235.0	-4.418
43	320.0/270.0	-6.017
44	320.0/360.0	311.3
45	320.0/600.0	-3.871
46	325.0/265.0	-6.143
47	325.0/285.0	-3.676
48	325.0/365.0	322.5
49	325.0/615.0	-2.847
50	330.0/370.0	286.8
51	335.0/285.0	-4.065
52	335.0/380.0	286.7
53	340.0/255.0	-3.813
54	340.0/385.0	295.7
55	340.0/595.0	-1.412
56	340.0/625.0	-3.600
57	345.0/275.0	-3.693
58	345.0/390.0	259.2
59	345.0/635.0	-1.624
60	350.0/395.0	248.6
61	350.0/615.0	-1.599
62	355.0/280.0	-2.749
63	355.0/300.0	-2.998
64	355.0/405.0	245.8
65	355.0/620.0	-2.222
66	360.0/240.0	-3.328
67	360.0/270.0	-3.122
68	360.0/410.0	225.1
69	360.0/615.0	-0.973
70	365.0/415.0	215.0
71	370.0/320.0	-2.966
72	370.0/425.0	208.3
73	375.0/250.0	-3.064
74	375.0/430.0	186.2
75	375.0/635.0	-2.238
76	380.0/440.0	164.7
77	385.0/445.0	155.2
78	395.0/280.0	-1.962
79	400.0/240.0	-2.403
80	400.0/330.0	-1.679
81	400.0/465.0	95.63
82	415.0/240.0	-1.742
83	415.0/485.0	52.05
84	420.0/325.0	-2.055
85	425.0/255.0	-1.985
86	425.0/400.0	-0.954
87	425.0/495.0	35.59
88	430.0/380.0	-1.292
89	430.0/505.0	29.12
90	435.0/510.0	22.43
91	445.0/525.0	16.16
92	450.0/530.0	13.22
93	460.0/545.0	8.531
94	470.0/345.0	-0.261
95	470.0/560.0	4.041
96	480.0/380.0	-0.035
97	480.0/575.0	1.528
98	490.0/360.0	0.580
99	505.0/445.0	-0.795
100	510.0/280.0	-0.167
101	515.0/625.0	-1.011
102	520.0/460.0	-0.581
103	535.0/295.0	1.421
104	545.0/300.0	2.057
105	545.0/400.0	-0.825
106	550.0/305.0	1.584
107	550.0/440.0	-0.838
108	565.0/465.0	-0.962
109	570.0/455.0	-0.978
110	570.0/490.0	-1.528
111	575.0/325.0	-0.540
112	580.0/355.0	-0.982
113	585.0/260.0	-1.679
114	590.0/245.0	-1.978
115	590.0/420.0	-0.389
116	595.0/400.0	-1.079

Data points
	220.0	225.0	230.0	235.0	240.0	245.0	250.0	255.0	260.0	265.0	270.0	275.0	280.0	285.0	290.0	295.0	300.0	305.0	310.0	315.0	320.0	325.0	330.0	335.0	340.0	345.0	350.0	355.0	360.0	365.0	370.0	375.0	380.0	385.0	390.0	395.0	400.0	405.0	410.0	415.0	420.0	425.0	430.0	435.0	440.0	445.0	450.0	455.0	460.0	465.0	470.0	475.0	480.0	485.0	490.0	495.0	500.0	505.0	510.0	515.0	520.0	525.0	530.0	535.0	540.0	545.0	550.0	555.0	560.0	565.0	570.0	575.0	580.0	585.0	590.0	595.0	600.0
230.0	-145.2	-83.83	590.3	564.7	-26.76	-67.87	-61.97	-51.38	-35.92	-39.88	-37.65	-31.75	-19.96	-24.78	-16.81	-12.57	-11.30	-9.786	-10.89	-9.649	-6.853	-6.740	-5.742	-6.564	-4.903	-4.722	-5.616	-4.936	-4.960	-4.712	-4.295	-4.265	-3.093	-3.892	-3.191	-3.196	-2.964	-2.777	-2.800	-3.112	-2.917	-2.785	-2.757	-2.507	-2.676	-2.603	-2.257	-1.492	-0.821	-0.120	-1.117	-1.763	-2.075	-2.175	-2.202	-2.265	-2.586	-2.425	-2.723	-2.279	-2.408	-2.603	-2.035	-2.670	-2.596	-2.745	-2.688	-2.368	-2.497	-2.544	-2.643	-2.631	-3.028	-2.733	-2.669	-2.409	-2.539
235.0	-185.3	-133.1	173.9	 1218	 1032	-4.840	-51.10	-45.40	-38.47	-34.94	-30.12	-27.55	-25.26	-23.29	-14.55	-15.57	-10.87	-12.36	-9.349	-8.853	-4.418	-8.632	-5.165	-5.594	-6.030	-5.931	-4.199	-4.709	-4.206	-5.297	-4.652	-4.456	-3.764	-3.787	-3.992	-2.786	-3.029	-2.977	-2.327	-2.460	-3.210	-3.012	-2.577	-2.826	-2.797	-2.486	-2.465	-2.091	-1.891	-1.019	0.285	0.667	-1.076	-2.241	-2.130	-2.419	-2.358	-2.088	-2.831	-2.224	-2.018	-2.368	-1.637	-2.708	-2.733	-2.254	-2.816	-2.215	-2.565	-2.581	-2.267	-2.165	-2.491	-2.338	-2.596	-2.626	-2.875
240.0	-200.2	-126.4	-73.63	578.2	 1969	846.9	-22.89	-41.04	-52.89	-43.30	-33.41	-24.21	-28.21	-21.77	-13.49	-14.66	-11.09	-8.170	-8.237	-9.213	-7.258	-7.283	-7.213	-6.685	-5.800	-4.988	-4.729	-4.471	-3.328	-3.828	-4.394	-4.443	-2.710	-3.163	-3.251	-3.119	-2.403	-3.596	-3.078	-1.742	-3.386	-2.387	-3.673	-2.782	-2.521	-2.558	-2.745	-1.695	-2.350	-1.440	-0.589	0.649	2.611	0.189	-1.264	-1.986	-2.012	-2.119	-2.449	-2.260	-2.357	-2.309	-2.639	-2.860	-2.857	-2.488	-2.021	-2.669	-2.722	-2.296	-2.980	-2.247	-2.732	-2.908	-2.610	-3.347	-2.687
245.0	-195.8	-103.4	-62.61	98.42	 1168	 2281	680.3	-39.80	-46.74	-49.60	-31.33	-33.64	-30.11	-17.49	-17.18	-16.35	-8.752	-9.554	-6.784	-11.33	-8.028	-6.708	-7.383	-5.868	-6.083	-5.618	-4.342	-3.937	-3.613	-3.808	-4.184	-4.471	-3.213	-4.318	-3.322	-3.079	-2.649	-3.301	-2.948	-2.593	-2.441	-2.506	-3.771	-2.810	-2.661	-2.340	-2.851	-2.022	-2.318	-1.393	-1.283	-1.507	0.763	2.252	2.055	-0.175	-1.827	-2.259	-2.805	-2.730	-2.017	-2.933	-2.908	-2.457	-2.416	-3.207	-2.005	-2.799	-2.741	-2.946	-2.410	-2.916	-2.483	-3.186	-1.978	-3.217	-3.109
250.0	-177.6	-126.1	-74.60	5.607	234.8	 1186	 2105	 1044	124.7	-34.51	-35.08	-29.84	-27.85	-17.47	-15.50	-13.83	-11.07	-9.451	-8.868	-8.025	-6.976	-6.935	-7.024	-5.468	-4.682	-4.920	-4.058	-4.382	-3.985	-4.104	-4.417	-3.064	-4.242	-3.953	-3.995	-2.779	-3.405	-3.462	-2.992	-2.661	-2.798	-2.701	-3.164	-2.646	-2.382	-2.531	-2.230	-2.412	-2.209	-1.553	-1.502	-2.342	-1.513	-0.843	0.348	1.967	3.636	1.966	-0.096	-1.545	-2.062	-2.890	-2.587	-2.553	-2.483	-2.814	-2.294	-2.793	-2.530	-2.597	-2.621	-2.554	-2.414	-2.589	-2.642	-2.970	-2.824
255.0	-157.0	-135.2	-104.6	41.23	90.91	222.4	762.9	 2814	 1499	173.5	-34.11	-16.25	-21.10	-21.51	-17.41	-17.38	-13.98	-7.388	-7.960	-7.368	-8.524	-7.758	-6.596	-4.314	-3.813	-5.161	-5.889	-5.762	-4.257	-3.190	-4.170	-3.659	-3.216	-3.980	-3.298	-3.766	-3.383	-3.447	-2.699	-2.549	-2.508	-1.985	-3.155	-2.856	-2.149	-2.750	-1.493	-2.403	-2.310	-1.923	-1.379	-1.878	-2.023	-1.640	-1.569	-1.050	0.086	2.607	5.212	5.908	1.251	-2.370	-2.170	-2.311	-2.376	-2.086	-2.154	-3.199	-2.856	-2.396	-2.907	-2.552	-2.119	-2.806	-3.084	-3.473	-3.078
260.0	-214.9	-90.13	-109.1	-8.482	145.5	60.45	138.2	 1272	 3573	 1285	61.63	-25.86	-23.72	-16.81	-19.91	-14.97	-12.14	-8.728	-9.055	-10.06	-8.200	-7.329	-8.403	-5.351	-5.055	-5.983	-4.747	-5.008	-3.901	-3.481	-5.269	-3.928	-3.746	-3.967	-3.506	-3.287	-3.480	-3.323	-3.189	-2.357	-2.409	-2.329	-3.041	-2.966	-2.131	-2.596	-2.244	-2.145	-1.443	-2.003	-1.669	-1.269	-1.607	-1.586	-1.713	-1.550	-1.941	-1.119	1.159	5.717	9.607	4.505	0.051	-1.936	-2.333	-2.186	-2.346	-3.350	-2.799	-2.403	-2.695	-3.086	-2.448	-1.679	-2.174	-3.187	-2.917
265.0	-222.3	-148.6	-116.8	-68.68	109.4	160.8	-4.821	288.1	 1946	 4324	 1004	18.77	-22.29	-17.97	-18.97	-15.51	-11.09	-11.78	-8.743	-7.888	-7.142	-6.143	-9.028	-5.880	-5.262	-5.422	-4.731	-5.648	-5.133	-4.570	-4.883	-4.938	-4.954	-3.148	-3.825	-2.846	-2.800	-2.776	-2.614	-2.412	-2.124	-1.993	-2.977	-2.137	-2.286	-2.773	-1.712	-1.864	-1.813	-1.533	-1.451	-1.239	-1.472	-1.239	-1.618	-1.814	-2.453	-1.707	-1.013	0.238	4.292	9.913	9.252	2.909	-1.209	-3.184	-2.066	-2.775	-2.881	-2.696	-2.159	-3.563	-2.842	-2.167	-2.437	-2.653	-2.822
270.0	-178.5	-124.0	-116.8	-94.33	-38.13	144.7	169.6	93.33	460.8	 1998	 4145	 2919	249.8	-15.77	-15.52	-10.34	-11.90	-10.23	-8.686	-9.066	-6.017	-7.480	-5.478	-5.963	-6.223	-5.496	-5.329	-4.935	-3.122	-5.050	-3.751	-4.190	-4.226	-2.947	-3.142	-3.100	-2.741	-3.116	-3.291	-2.135	-2.538	-2.583	-2.906	-2.948	-1.549	-2.249	-2.441	-2.371	-1.909	-1.562	-1.758	-1.889	-2.155	-1.913	-1.807	-1.452	-1.679	-1.828	-1.957	-1.399	-0.710	1.437	4.138	7.035	11.82	7.011	1.472	-2.348	-2.610	-2.608	-2.667	-2.724	-2.759	-2.098	-2.689	-2.618	-3.060
275.0	-191.5	-105.8	-95.73	-65.45	-68.89	8.753	189.0	310.2	185.3	526.7	 1441	 5012	 4713	278.4	-8.299	-12.90	-12.09	-8.060	-11.73	-9.186	-7.061	-6.397	-8.113	-5.740	-5.264	-3.693	-5.037	-4.507	-3.908	-4.732	-3.106	-3.062	-4.270	-4.931	-3.682	-2.871	-2.736	-3.140	-3.896	-2.530	-3.110	-2.933	-2.675	-2.613	-2.025	-2.550	-2.351	-1.772	-2.059	-1.547	-1.620	-2.478	-1.883	-2.782	-2.074	-1.895	-1.072	-1.050	-1.563	-1.876	-1.484	-1.308	-0.828	0.549	2.887	8.045	14.64	12.85	2.401	-1.941	-2.029	-2.780	-2.692	-2.914	-2.471	-3.899	-2.733
280.0	-135.3	-114.6	-89.13	-72.40	-73.39	-4.415	102.9	450.6	433.6	389.4	699.8	 2217	 6622	 3742	105.1	-7.422	-11.23	-6.076	-8.602	-8.405	-7.827	-5.878	-7.872	-4.102	-5.566	-4.142	-5.733	-2.749	-3.772	-4.177	-3.660	-3.174	-4.756	-3.801	-2.840	-1.962	-2.756	-2.442	-3.990	-2.704	-2.524	-2.933	-3.721	-2.990	-1.396	-2.447	-2.478	-1.626	-2.040	-1.611	-1.372	-2.498	-1.801	-2.544	-2.420	-2.562	-1.584	-1.426	-0.167	-0.664	-1.748	-1.525	-1.065	-0.697	-0.608	1.144	5.791	15.37	18.21	9.487	-0.142	-3.057	-2.557	-2.974	-3.120	-3.109	-2.387
285.0	-125.3	-120.9	-63.79	-77.60	-53.15	2.112	88.62	357.6	788.8	706.1	789.5	 1133	 3202	 7225	610.9	29.34	-4.865	-5.146	-6.816	-6.670	-6.801	-3.676	-6.803	-4.065	-5.128	-3.728	-3.848	-4.086	-4.261	-4.016	-4.080	-3.577	-3.259	-4.498	-3.349	-2.637	-3.103	-2.714	-2.831	-3.894	-2.087	-2.970	-3.291	-2.476	-2.137	-2.574	-2.435	-2.049	-2.380	-1.888	-1.061	-2.101	-1.694	-2.023	-1.675	-2.376	-1.604	-1.416	-1.123	-0.435	-0.203	-0.147	-0.890	-0.697	-0.562	-0.213	1.067	3.879	9.352	19.26	15.77	3.938	-1.774	-2.194	-2.787	-2.622	-2.604
290.0	-130.5	-71.26	-52.11	-48.96	-6.780	29.40	130.2	363.0	791.6	 1280	 1338	 1192	 1292	 2957	 4976	 2320	152.2	-2.386	-7.399	-4.807	-6.538	-5.729	-6.142	-4.761	-5.562	-4.854	-4.627	-5.709	-5.608	-4.302	-4.244	-3.028	-3.333	-2.837	-3.090	-2.699	-2.881	-3.127	-2.876	-2.732	-3.030	-2.700	-2.705	-2.203	-1.866	-2.164	-2.291	-1.930	-1.739	-1.572	-1.425	-1.962	-2.108	-1.760	-2.117	-1.736	-1.627	-1.268	-1.081	-0.801	-0.387	0.578	0.602	0.770	0.068	0.187	-0.110	0.772	0.932	4.242	8.703	12.74	14.07	9.708	2.039	-1.888	-2.734
295.0	-93.37	-49.74	15.42	-33.31	8.048	69.44	167.5	408.5	797.3	 1292	 1950	 1529	966.2	846.7	 1491	 4921	 3412	207.6	-4.831	-2.815	-5.791	-6.924	-4.717	-5.549	-4.804	-4.323	-4.854	-5.289	-3.970	-5.033	-4.725	-3.754	-3.322	-3.754	-3.240	-3.011	-3.241	-2.698	-2.797	-3.275	-2.839	-2.439	-2.724	-2.499	-2.001	-1.981	-2.122	-2.137	-1.762	-1.382	-1.611	-1.420	-1.717	-1.405	-1.585	-1.192	-1.706	-0.706	-1.519	-0.416	-0.626	0.596	0.783	1.421	1.064	0.718	0.405	-0.022	-0.109	-0.483	0.039	1.175	3.995	11.75	19.81	14.81	2.686
300.0	-73.96	-18.66	21.26	5.879	7.631	97.05	176.5	456.0	764.9	 1197	 1866	 1871	960.7	428.0	415.8	 1783	 6177	 2880	102.9	-1.184	-3.699	-6.285	-6.118	-4.844	-5.458	-5.374	-6.118	-2.998	-4.859	-4.590	-5.476	-3.475	-3.938	-3.294	-3.916	-3.357	-2.709	-3.256	-3.404	-3.687	-2.874	-2.442	-2.542	-2.453	-2.153	-2.079	-1.979	-2.138	-1.525	-1.378	-1.936	-2.274	-2.063	-1.058	-1.752	-1.765	-1.991	-1.333	-1.597	-1.085	-0.670	0.034	0.790	0.922	1.433	2.057	0.610	-0.515	-0.823	-1.398	-2.077	-1.745	-1.029	1.271	7.897	19.36	21.88
305.0	-111.6	-33.48	-23.94	44.03	58.06	96.04	204.4	434.7	784.9	 1108	 1573	 1874	 1193	353.7	206.9	473.5	 2678	 9218	 1929	32.85	-3.622	-6.401	-5.359	-4.628	-6.605	-4.002	-4.302	-4.037	-4.822	-4.722	-5.349	-2.988	-3.191	-3.060	-3.039	-2.668	-2.569	-3.514	-3.265	-2.960	-2.946	-2.496	-3.327	-2.634	-2.323	-2.109	-2.040	-2.634	-1.789	-1.492	-1.680	-2.100	-1.983	-1.908	-1.196	-1.911	-2.304	-0.917	-0.793	-0.848	-1.185	-0.104	-0.198	0.645	1.026	1.457	1.584	0.722	-1.265	-1.745	-2.171	-2.574	-1.640	-2.145	0.485	4.170	14.88
310.0	-145.3	-55.24	-23.24	43.30	51.60	99.19	191.7	387.7	686.5	986.8	 1292	 1389	 1224	612.3	225.3	190.9	668.9	 3839	 5031	 2593	106.0	-2.278	-2.613	-4.713	-3.207	-4.359	-3.213	-4.117	-3.807	-4.290	-4.690	-3.499	-3.450	-3.158	-2.409	-2.859	-2.594	-3.207	-3.121	-2.783	-2.675	-2.528	-2.767	-2.549	-2.167	-1.975	-2.531	-1.841	-1.242	-1.221	-1.332	-1.842	-1.911	-2.076	-1.272	-1.807	-2.075	-1.182	-1.230	-0.998	-1.103	-0.773	-0.010	0.062	0.189	0.398	0.271	0.711	-0.354	-0.842	-1.791	-2.132	-2.426	-2.325	-2.008	-0.732	1.200
315.0	-141.2	-56.22	-6.605	52.19	69.81	106.8	162.7	333.8	600.4	830.1	 1035	 1081	850.6	767.0	450.0	168.6	219.0	898.9	 1461	 4767	 2194	144.1	-0.233	-3.167	-3.096	-2.829	-2.281	-4.554	-3.633	-3.625	-4.428	-4.492	-3.963	-2.568	-3.174	-2.551	-2.798	-2.151	-2.888	-2.585	-2.477	-2.725	-2.978	-3.107	-2.544	-2.086	-2.292	-1.987	-1.229	-1.328	-1.629	-1.268	-1.795	-1.914	-1.305	-2.086	-2.564	-1.566	-1.062	-1.120	-1.268	-0.931	-0.410	-0.172	-0.516	0.347	0.263	-0.185	-0.784	-0.865	-0.280	-1.877	-1.672	-2.262	-2.286	-2.263	-1.311
320.0	-120.8	-52.28	55.03	55.84	78.76	121.8	197.9	310.3	493.0	688.0	881.9	877.9	708.3	572.2	644.6	265.7	132.6	250.3	353.7	 1757	 5376	 1868	80.42	-2.297	-4.428	-3.555	-2.771	-3.916	-3.817	-4.224	-2.966	-4.883	-3.730	-2.729	-3.609	-2.539	-2.292	-2.517	-2.992	-2.858	-2.250	-3.294	-3.190	-2.949	-2.245	-1.962	-2.187	-1.724	-1.522	-1.521	-1.466	-1.563	-1.340	-2.032	-1.274	-1.631	-2.016	-1.281	-1.043	-1.345	-1.222	-1.062	-1.241	-0.122	-0.341	-1.384	-0.200	-0.766	-0.816	-1.223	-0.783	-1.212	-1.720	-2.168	-2.302	-2.757	-2.274
325.0	-97.17	-84.92	58.89	82.31	106.1	122.1	187.7	300.6	463.6	609.7	769.3	775.5	627.2	444.7	565.8	471.6	157.1	113.4	115.1	429.7	 2477	 5505	 1425	28.93	-2.852	-3.435	-2.761	-4.078	-3.447	-3.911	-3.835	-3.809	-2.823	-2.822	-2.888	-2.885	-2.889	-2.194	-2.524	-3.436	-2.055	-3.520	-2.179	-2.113	-2.177	-1.966	-2.666	-2.358	-2.064	-1.360	-1.674	-1.889	-1.323	-1.866	-1.741	-2.066	-1.531	-0.943	-1.229	-1.655	-0.871	-1.035	-1.471	-0.550	-0.375	-1.161	-0.537	-1.410	-0.875	-1.770	-1.794	-0.540	-1.466	-1.202	-1.868	-2.629	-1.954
330.0	-158.2	-45.69	68.85	158.4	173.2	206.4	261.9	326.2	422.3	559.0	662.4	672.0	570.0	408.5	382.7	464.3	368.2	141.8	79.71	131.1	600.2	 2326	 4235	 2200	80.56	-0.944	-2.753	-3.405	-3.891	-3.063	-3.629	-3.988	-3.293	-2.683	-2.969	-3.233	-1.679	-2.638	-2.234	-2.999	-2.839	-2.622	-2.199	-2.164	-2.337	-2.462	-2.197	-2.203	-1.858	-1.165	-1.939	-1.426	-1.024	-2.004	-1.479	-1.617	-1.833	-1.223	-1.464	-1.237	-1.092	-1.555	-1.383	-0.957	-0.828	-0.816	-1.110	-1.469	-0.877	-1.425	-2.003	-1.740	-1.583	-1.187	-1.758	-1.475	-2.564
335.0	-157.8	-5.656	109.8	233.7	284.3	335.4	367.6	398.2	428.6	513.3	564.3	581.9	526.8	408.1	339.9	304.8	388.3	326.5	116.7	80.36	166.8	543.7	 1303	 4360	 3433	116.3	-0.987	-1.008	-3.955	-3.157	-3.571	-3.335	-2.921	-3.552	-2.298	-2.938	-2.231	-3.291	-2.799	-2.091	-3.139	-2.421	-2.342	-2.633	-2.825	-2.649	-2.657	-2.423	-1.628	-1.265	-1.359	-1.476	-1.708	-1.114	-1.101	-1.212	-1.907	-1.526	-1.786	-1.187	-1.021	-0.942	-1.303	-1.205	-0.701	-1.274	-0.594	-1.966	-0.745	-1.327	-1.090	-1.041	-1.583	-1.585	-1.978	-0.896	-1.541
340.0	-150.3	38.22	165.5	300.1	418.1	449.7	443.0	436.5	435.8	503.1	530.9	501.6	479.4	401.9	325.6	266.9	271.2	415.5	234.3	82.80	81.25	153.3	318.1	 1716	 5261	 1460	69.12	-2.830	-2.317	-3.223	-4.106	-3.174	-2.328	-3.677	-2.199	-2.383	-3.065	-2.893	-3.261	-1.787	-2.379	-2.283	-2.240	-2.360	-2.614	-2.453	-2.571	-2.087	-1.301	-0.930	-0.663	-1.558	-1.557	-1.537	-1.150	-0.927	-2.149	-1.305	-1.349	-2.007	-1.477	-0.895	-1.789	-0.992	-1.484	-1.424	-0.745	-1.710	-2.054	-1.950	-1.214	-1.302	-1.914	-1.046	-1.996	-1.983	-1.910
345.0	-168.7	-30.92	209.7	354.9	467.1	540.0	532.8	502.0	485.6	510.5	485.5	488.5	456.5	379.1	321.4	262.8	216.9	304.7	355.6	139.1	78.56	78.04	101.5	421.5	 2523	 5156	 1155	20.46	-0.933	-3.285	-2.305	-4.029	-2.510	-3.496	-2.688	-3.282	-2.169	-3.265	-2.676	-2.022	-2.303	-2.553	-2.491	-2.597	-2.856	-2.470	-2.010	-2.439	-1.291	-1.163	-0.261	-1.314	-1.107	-0.969	-1.317	-1.415	-1.609	-0.479	-1.099	-1.375	-2.043	-1.013	-1.311	-0.738	-1.652	-1.005	-1.715	-1.203	-1.063	-2.080	-2.149	-2.112	-1.407	-1.515	-2.240	-1.735	-2.117
350.0	-129.3	-7.583	197.3	381.8	524.4	619.2	625.4	576.9	521.4	501.7	447.5	437.3	427.1	369.8	330.1	266.6	213.9	217.9	295.1	296.0	141.7	78.17	68.53	127.1	618.1	 2363	 3872	 1930	67.22	-1.651	-2.829	-3.046	-3.153	-3.265	-3.107	-2.414	-2.860	-2.925	-2.802	-2.944	-2.370	-2.801	-2.610	-2.584	-2.323	-1.973	-1.607	-1.802	-1.743	-1.094	-0.880	-1.517	-1.368	-0.767	-0.585	-1.112	-0.891	-0.931	-1.259	-0.771	-1.383	-1.271	-1.406	-1.506	-1.261	-1.635	-1.433	-1.287	-1.294	-1.823	-1.903	-2.010	-1.474	-1.982	-1.719	-2.141	-1.642
355.0	-104.9	-7.554	217.2	386.2	667.4	733.6	721.7	602.6	529.0	518.6	414.3	405.5	385.4	363.2	324.8	278.7	229.6	214.3	211.5	280.7	280.6	131.3	79.18	76.84	172.7	551.0	 1284	 4131	 1363	90.45	-1.209	-1.457	-2.103	-2.926	-1.910	-1.723	-3.622	-2.562	-2.850	-2.508	-2.863	-3.127	-2.540	-2.429	-1.934	-1.952	-1.804	-1.917	-0.786	-1.021	-1.025	-1.143	-0.484	-0.247	-0.001	-0.605	-0.694	-0.619	-1.131	-1.210	-1.063	-0.697	-1.605	-1.464	-2.299	-1.181	-1.356	-1.690	-2.058	-1.718	-1.832	-2.126	-0.982	-2.176	-2.168	-1.932	-2.516
360.0	-160.9	-24.05	225.1	438.7	619.7	776.6	756.0	623.5	538.5	486.8	386.3	365.8	372.0	363.5	333.3	289.7	245.9	220.4	205.0	217.8	311.3	234.6	109.1	77.30	83.32	157.2	313.8	 1733	 4454	 1236	51.76	-1.212	-2.669	-1.922	-2.155	-1.738	-2.295	-2.779	-2.462	-2.767	-2.685	-3.213	-2.846	-2.832	-2.687	-1.657	-1.902	-1.421	-0.988	-0.699	-1.307	-0.843	-0.593	-0.835	0.580	0.301	-1.708	-0.473	-0.555	-0.780	-0.711	-1.598	-1.095	-1.434	-2.198	-2.106	-1.731	-1.537	-1.734	-1.577	-1.644	-1.862	-1.757	-2.199	-1.588	-1.330	-1.887
365.0	-143.9	-26.49	242.2	488.3	658.6	778.5	742.5	657.7	539.4	470.2	413.9	350.3	362.1	356.6	329.9	300.7	261.1	235.2	214.4	203.2	249.3	322.5	178.4	95.22	78.84	80.29	100.7	428.9	 2389	 4586	965.3	14.27	-1.208	-1.030	-2.023	-2.310	-1.676	-2.709	-2.463	-2.515	-2.313	-2.982	-2.581	-2.605	-2.583	-2.424	-1.686	-1.622	-1.396	-1.256	-0.471	-1.048	-1.003	-0.259	-0.390	-0.294	-0.795	-0.805	-0.631	-1.583	-1.085	-0.903	-1.558	-1.465	-1.564	-1.520	-1.646	-1.622	-1.699	-1.264	-1.937	-1.536	-1.734	-1.689	-1.911	-2.550	-1.788
370.0	-113.4	-7.889	217.9	475.4	634.2	770.9	732.8	625.6	545.2	482.7	398.5	350.1	368.6	356.9	339.2	312.8	282.0	265.3	244.1	220.9	220.5	265.9	286.8	168.7	102.0	78.95	68.32	126.2	591.0	 2234	 3754	 1813	53.13	-1.200	-1.178	-2.251	-2.250	-2.702	-2.327	-1.994	-1.722	-3.220	-2.343	-2.227	-2.415	-2.703	-2.054	-1.739	-1.529	-1.177	-0.972	-0.983	-0.683	-0.511	-0.664	-0.177	-0.589	-0.670	-1.214	-0.976	-0.543	-1.455	-1.730	-1.556	-1.238	-1.925	-1.040	-1.804	-1.532	-1.436	-1.825	-1.356	-1.720	-1.720	-1.820	-2.195	-1.402
375.0	-78.68	-2.156	209.3	451.8	606.9	712.8	685.4	605.5	524.4	469.7	387.7	331.9	355.5	376.7	348.8	341.9	310.9	294.2	267.2	246.1	226.5	224.5	255.6	281.7	158.5	97.62	77.04	73.02	162.1	519.8	 1347	 4261	 1116	67.38	-0.035	-2.217	-1.616	-1.693	-2.254	-2.103	-1.377	-2.288	-2.253	-1.722	-1.462	-2.350	-1.689	-1.604	-0.953	-1.253	-1.014	-0.740	-0.387	0.060	-0.349	0.129	-1.230	-1.308	-0.860	-1.362	-1.626	-0.759	-1.708	-1.850	-1.850	-2.250	-1.256	-1.770	-1.510	-2.079	-1.722	-1.408	-1.680	-1.632	-1.815	-2.323	-2.086
380.0	-104.3	-2.682	181.9	397.1	619.7	699.5	669.8	600.4	502.9	447.5	387.2	332.8	353.2	392.1	343.3	360.3	332.4	320.9	296.9	261.7	240.1	223.3	223.4	286.7	247.0	124.7	88.30	69.54	75.04	140.8	328.1	 1954	 4170	958.1	33.21	-0.649	-1.994	-2.113	-2.803	-1.904	-2.239	-2.790	-1.292	-2.488	-1.876	-1.841	-1.612	-1.970	-1.524	-0.914	-1.153	-0.463	-0.035	-0.220	-1.022	-0.274	-0.951	-0.294	-0.732	-1.337	-1.087	-0.984	-1.668	-2.011	-2.306	-1.850	-1.137	-1.961	-1.690	-1.369	-1.229	-1.978	-1.946	-1.205	-1.876	-1.980	-1.967
385.0	-120.8	2.834	171.8	383.7	559.8	660.5	617.5	560.9	478.7	403.5	341.8	351.4	357.7	384.7	376.3	374.2	350.7	325.9	307.9	278.9	249.7	230.9	216.9	237.4	295.7	182.4	106.5	81.01	66.11	68.22	99.56	488.9	 2460	 3942	693.3	6.851	-1.548	-2.004	-1.488	-1.883	-3.040	-2.413	-2.401	-2.623	-1.970	-2.385	-1.714	-1.125	-1.635	-0.952	-0.595	-0.622	-0.420	-0.621	-0.132	-0.493	-0.518	-0.887	-1.137	-1.435	-0.954	-0.873	-1.270	-1.423	-2.121	-1.491	-1.612	-1.890	-1.693	-1.038	-1.686	-1.460	-1.922	-1.456	-1.787	-2.061	-1.982
390.0	-86.28	-36.46	172.9	346.8	567.5	610.5	586.3	512.7	444.4	388.8	352.6	339.7	363.6	384.4	392.0	384.1	371.4	348.8	320.7	293.9	267.4	239.0	222.7	219.9	241.9	259.2	165.3	104.6	78.79	64.15	58.65	136.5	618.9	 2083	 3084	 1257	39.66	-1.013	-0.980	-1.518	-2.426	-2.410	-1.804	-2.567	-2.288	-1.900	-2.196	-1.869	-1.363	-1.182	-0.816	-1.110	-0.704	-0.961	-0.515	-0.135	-0.975	-0.773	-0.831	-1.462	-1.717	-1.138	-1.718	-1.647	-1.801	-1.377	-1.730	-1.389	-1.968	-0.983	-1.941	-1.706	-1.817	-1.509	-2.094	-1.761	-2.173
395.0	-188.0	-30.59	104.8	365.2	482.3	526.6	535.2	422.4	432.7	361.8	349.1	307.7	359.7	380.9	389.0	381.6	374.2	362.0	319.9	297.7	273.8	251.5	237.3	221.4	208.2	231.0	248.6	155.8	98.38	78.62	62.22	65.33	161.1	483.8	 1238	 3358	878.5	47.97	0.358	-1.092	-1.834	-2.042	-2.511	-2.610	-2.254	-1.910	-1.493	-2.380	-1.134	-0.913	-0.916	-1.096	-1.238	-1.007	-1.041	-1.336	-0.873	-1.073	-1.265	-1.352	-1.640	-1.273	-1.756	-1.829	-1.729	-1.822	-1.617	-1.269	-1.804	-0.886	-0.959	-1.155	-1.765	-1.497	-1.030	-1.483	-2.656
400.0	-190.7	-16.21	130.8	362.6	425.3	489.6	498.8	411.5	401.3	349.8	331.4	337.6	343.9	367.6	391.6	394.5	395.8	356.6	328.0	300.0	273.4	253.4	243.6	230.5	211.7	200.3	246.6	225.6	125.5	92.37	71.86	58.22	67.36	129.3	299.7	 1686	 3381	745.1	21.65	-0.766	-2.163	-0.954	-1.822	-2.064	-2.093	-2.174	-1.549	-2.304	-1.676	-1.234	-1.265	-1.353	-0.817	-1.124	-0.850	-1.206	-1.521	-1.038	-1.485	-1.166	-1.661	-1.151	-1.725	-1.283	-1.923	-0.825	-1.692	-1.758	-1.351	-1.198	-1.564	-1.896	-1.549	-2.243	-1.463	-1.079	-2.222
405.0	-121.8	-48.52	112.5	325.7	406.6	463.8	461.6	397.5	365.8	318.3	306.3	337.6	352.0	365.8	406.5	384.3	385.4	347.6	326.4	293.8	276.9	251.5	236.7	227.4	209.6	196.6	212.2	245.8	174.5	107.2	80.31	64.74	51.76	53.77	84.01	427.3	 2083	 3017	534.4	4.304	-0.789	-2.480	-1.666	-1.995	-1.912	-1.707	-2.079	-1.743	-0.999	-0.927	-0.655	-1.336	-1.177	-1.283	-0.951	-1.468	-1.450	-1.006	-1.321	-1.404	-1.538	-1.011	-1.836	-1.180	-1.203	-1.058	-1.210	-2.352	-1.556	-1.514	-2.398	-1.616	-1.089	-1.648	-1.686	-1.589	-1.553
410.0	-77.25	-51.23	114.8	267.3	369.4	415.8	405.5	372.5	339.4	313.4	316.6	333.3	338.3	373.0	392.2	375.3	372.4	340.6	320.5	288.3	268.9	247.1	240.2	229.2	217.1	199.8	194.1	210.8	225.1	160.3	101.2	79.04	58.61	45.64	41.58	110.6	528.0	 1686	 2381	939.6	30.47	-0.897	-1.899	-2.003	-1.553	-1.674	-2.048	-1.119	-1.622	-1.107	-0.815	-1.380	-1.329	-1.235	-0.984	-0.903	-1.683	-0.860	-1.524	-1.810	-1.424	-1.738	-1.229	-1.456	-1.752	-1.592	-1.875	-1.732	-1.628	-1.557	-2.300	-1.902	-1.697	-2.002	-1.391	-1.544	-1.592
415.0	-124.2	-56.50	70.50	208.9	308.5	374.8	374.3	348.9	332.3	310.7	322.2	309.5	320.8	367.6	373.4	367.5	345.3	329.0	306.8	282.0	260.2	242.7	235.8	229.9	220.7	206.2	190.6	190.7	203.3	215.0	141.1	95.67	69.28	50.35	39.53	44.70	131.4	386.8	993.5	 2544	743.0	37.62	-1.674	-1.413	-1.967	-2.501	-1.872	-1.163	-1.501	-1.028	-0.792	-1.071	-1.614	-1.366	-1.240	-0.917	-1.392	-0.924	-1.701	-1.298	-1.104	-1.674	-1.489	-1.693	-2.082	-1.136	-1.818	-1.633	-2.901	-1.166	-1.753	-1.597	-1.760	-2.691	-1.556	-1.575	-2.218
420.0	-141.3	-71.34	109.8	211.5	277.2	320.2	354.7	327.3	323.8	320.0	324.3	314.8	319.9	351.8	359.9	353.9	330.4	316.5	287.7	264.6	248.0	232.3	228.1	222.9	218.9	209.0	193.2	185.9	181.0	210.8	184.4	113.0	81.40	59.80	42.92	34.70	45.80	97.80	240.8	 1338	 2493	607.1	10.77	-1.718	-2.207	-2.020	-1.374	-1.111	-1.580	-1.206	-0.819	-2.016	-1.451	-2.113	-0.939	-1.375	-0.719	-1.204	-1.603	-1.381	-1.956	-1.662	-2.014	-1.626	-2.086	-1.555	-1.557	-1.640	-1.459	-1.418	-2.377	-1.243	-1.503	-2.247	-0.389	-1.843	-2.254
425.0	-158.0	-50.84	97.78	238.8	297.5	321.7	327.4	329.9	295.4	304.1	312.4	307.0	341.4	348.7	346.6	336.4	316.7	303.7	266.1	253.5	234.7	230.2	222.6	223.0	217.3	210.0	197.8	192.4	177.8	182.0	208.3	148.8	90.88	67.24	48.17	38.01	32.52	36.15	64.00	343.3	 1625	 2253	90.58	1.260	-1.852	-2.093	-1.283	-1.543	-1.367	-1.074	-1.245	-1.789	-1.038	-1.098	-1.328	-1.751	-1.168	-1.841	-1.495	-2.080	-1.457	-2.810	-2.123	-1.780	-2.192	-1.864	-1.675	-1.682	-1.639	-1.272	-1.988	-1.860	-1.739	-1.783	-0.885	-2.250	-1.798
430.0	-109.0	-64.07	81.88	180.3	294.4	308.1	324.8	313.6	310.4	313.3	303.8	314.0	320.7	328.7	319.7	319.9	301.7	283.1	259.4	240.6	227.3	217.8	218.1	214.5	210.1	207.9	200.0	190.9	182.6	172.9	184.5	186.2	128.5	80.67	58.67	43.98	34.61	27.07	26.59	85.70	415.7	 1298	 1757	403.6	24.40	-1.436	-1.525	-1.462	-1.618	-0.904	-1.242	-1.203	-1.158	-1.514	-1.215	-1.210	-1.117	-1.882	-1.941	-1.723	-1.940	-2.094	-1.314	-1.301	-1.576	-1.570	-1.779	-1.814	-1.847	-1.603	-1.593	-2.158	-2.004	-1.916	-1.395	-2.116	-1.953
435.0	-89.14	-111.7	37.32	194.9	272.1	300.6	286.6	281.1	307.8	298.2	305.9	329.9	325.8	317.7	312.0	297.5	283.1	266.4	238.4	225.8	214.9	205.3	214.2	212.1	207.0	205.3	203.5	194.3	187.6	178.6	167.7	171.6	164.5	113.1	70.26	54.28	42.52	29.53	23.35	31.65	101.3	296.8	816.2	 2028	648.8	31.23	-0.111	-1.212	-1.987	-0.907	-1.143	-1.325	-1.376	-1.307	-1.234	-1.657	-1.173	-1.216	-1.605	-1.360	-1.084	-2.014	-1.480	-1.088	-1.646	-1.947	-1.845	-1.616	-1.918	-1.643	-2.147	-1.408	-2.016	-1.435	-1.307	-1.857	-1.990
440.0	-143.1	-93.11	46.64	174.4	245.3	260.5	256.7	283.7	320.2	298.6	303.4	325.2	315.9	311.7	299.3	275.5	266.8	246.1	238.2	213.7	199.0	199.0	204.8	203.6	204.2	204.0	199.8	194.7	187.6	179.6	166.8	155.1	164.7	146.6	85.07	58.78	47.60	33.84	24.60	22.39	32.25	72.55	198.0	 1135	 2145	514.9	8.746	-1.280	-1.282	-0.868	-0.812	-1.753	-1.068	-1.426	-1.082	-1.491	-1.073	-1.077	-1.314	-2.119	-1.745	-1.600	-1.433	-1.312	-1.550	-1.788	-0.838	-1.576	-1.674	-2.448	-1.580	-1.760	-2.332	-1.678	-2.092	-1.568	-2.106
445.0	-73.61	-52.09	56.98	155.3	214.2	279.2	301.1	287.2	327.1	293.5	314.8	304.9	318.2	306.0	286.5	260.6	247.7	230.5	215.1	200.3	194.3	193.2	195.3	196.3	200.0	198.6	196.0	196.7	193.5	185.8	169.3	150.7	149.1	155.2	108.3	67.02	52.41	38.26	28.51	22.25	20.27	23.46	49.66	293.0	 1475	 2005	73.30	1.646	-0.962	-0.715	-0.914	-1.351	-1.233	-1.390	-1.373	-1.950	-1.240	-0.795	-1.089	-1.935	-2.048	-1.531	-2.159	-1.225	-2.134	-1.865	-1.311	-1.539	-2.121	-1.925	-1.194	-2.225	-1.588	-2.274	-1.713	-1.484	-1.667
450.0	-89.66	-7.662	76.19	112.1	197.3	236.0	271.1	266.9	290.2	287.8	317.7	316.5	309.3	289.9	267.8	242.8	231.9	213.6	194.3	186.9	183.4	180.6	178.8	182.4	187.9	187.6	186.5	187.9	187.1	178.0	171.4	151.1	134.7	135.9	128.7	89.83	60.01	44.88	33.99	26.45	19.29	15.93	18.73	70.45	379.0	 1239	 1722	341.8	20.26	-0.551	-1.071	-0.916	-1.559	-1.232	-1.257	-1.511	-0.887	-1.223	-1.428	-1.964	-1.807	-1.792	-1.906	-2.044	-1.706	-2.180	-1.445	-1.628	-1.865	-1.755	-1.552	-2.014	-1.556	-2.347	-2.640	-1.767	-1.947
455.0	-144.9	-18.32	262.7	122.4	144.0	182.4	239.5	261.1	274.3	278.1	284.0	276.6	283.0	262.1	251.5	228.2	210.2	191.9	177.1	170.6	164.0	164.0	169.3	169.7	173.3	180.3	175.7	173.6	174.7	171.2	164.2	150.8	132.4	117.3	113.2	110.9	73.32	49.04	36.71	30.20	21.74	16.66	12.97	21.38	88.29	281.7	782.6	 1837	514.6	19.82	-0.463	-0.753	-0.912	-1.115	-1.249	-2.284	-1.147	-1.573	-1.397	-1.156	-1.539	-1.533	-1.707	-1.649	-1.532	-1.583	-2.576	-1.477	-1.489	-2.116	-0.978	-1.994	-1.703	-2.498	-2.689	-1.955	-2.000
460.0	-178.5	-72.00	380.4	209.3	162.2	217.0	205.7	235.9	269.6	270.3	272.6	271.8	254.3	254.9	222.2	210.5	194.2	172.8	169.1	159.3	151.7	149.7	150.5	154.1	159.9	166.1	166.0	166.7	171.9	167.7	157.2	146.7	125.6	112.5	99.72	104.6	90.06	57.10	39.42	32.12	23.10	17.96	13.40	11.72	24.85	65.49	189.1	 1044	 1789	365.0	7.689	-1.209	-0.750	-1.068	-0.864	-1.977	-1.475	-2.159	-1.401	-1.171	-0.581	-1.625	-1.592	-1.485	-1.260	-1.485	-1.851	-1.335	-1.768	-1.702	-1.656	-2.155	-1.974	-2.067	-2.329	-1.511	-1.757
465.0	-151.4	-64.98	369.1	492.5	151.5	203.6	207.1	223.3	238.1	255.5	282.6	254.1	233.7	225.0	208.0	193.2	181.7	163.8	151.8	147.1	139.2	141.2	141.7	143.1	149.2	153.4	155.6	157.6	158.6	154.0	147.9	139.8	125.0	109.1	92.56	91.87	95.63	67.24	42.69	32.29	25.46	19.03	14.48	10.32	11.49	18.70	46.05	268.9	 1265	 1533	59.19	0.891	-1.403	-1.940	-1.024	-1.779	-1.566	-2.095	-1.342	-1.945	-1.326	-2.497	-2.163	-1.869	-2.096	-1.617	-1.769	-2.137	-1.310	-0.962	-1.989	-2.609	-2.171	-2.353	-2.141	-2.353	-2.365
470.0	-175.8	-111.7	153.6	706.8	324.7	168.7	203.2	204.0	212.9	213.7	240.4	240.5	211.3	202.8	187.7	170.9	156.5	145.5	135.8	131.7	120.7	123.3	122.1	130.6	131.9	138.0	140.7	142.1	146.6	142.5	138.1	129.3	115.5	103.2	87.82	77.42	78.58	75.82	53.77	35.07	27.08	21.07	14.85	10.85	8.880	9.493	13.50	62.76	325.3	990.7	 1152	312.4	16.26	-1.173	-1.154	-1.620	-1.323	-1.738	-1.725	-1.781	-1.251	-2.367	-2.189	-1.638	-1.973	-1.980	-2.154	-1.878	-1.517	-1.633	-1.639	-2.221	-2.257	-2.302	-1.882	-2.579	-1.975
475.0	-169.5	-135.0	11.57	495.6	850.4	158.1	150.8	167.7	186.1	195.0	194.9	211.8	209.3	183.3	171.2	146.4	136.7	128.8	116.2	111.3	107.5	107.3	108.0	115.1	122.2	124.2	122.5	123.4	131.5	129.4	125.2	117.0	106.6	97.61	82.44	70.00	63.51	63.20	61.64	44.50	27.09	21.87	15.55	12.69	8.453	7.015	6.725	16.96	74.31	224.3	529.7	 1221	435.0	17.07	-0.546	-1.295	-1.592	-1.943	-1.420	-2.105	-2.075	-2.038	-2.221	-2.517	-2.306	-1.370	-2.212	-2.427	-1.929	-1.748	-2.550	-2.289	-2.017	-2.236	-2.757	-2.899	-2.885
480.0	-148.5	-110.9	-29.03	203.9	 1052	350.4	163.9	151.5	160.8	184.0	178.6	198.8	191.0	177.6	152.0	137.2	124.5	117.5	107.6	100.3	98.42	101.2	97.01	105.9	112.2	112.4	113.6	116.5	119.8	117.3	117.1	110.8	99.78	89.72	77.01	66.39	57.16	52.90	60.44	50.02	30.44	21.30	15.56	13.04	8.514	7.431	5.673	7.153	18.88	51.88	127.3	683.1	 1246	336.3	2.730	-1.327	-2.101	-2.353	-1.198	-1.671	-1.735	-1.800	-2.227	-2.195	-2.036	-1.658	-1.938	-1.907	-1.918	-1.676	-2.015	-2.200	-1.790	-1.757	-2.062	-2.173	-2.435
485.0	-133.2	-111.3	-65.83	71.69	793.6	860.2	146.7	132.5	156.3	150.2	182.1	170.8	179.1	160.9	140.6	132.0	104.5	108.3	101.2	91.10	89.27	89.37	90.13	100.6	100.4	104.3	105.8	108.9	111.9	111.1	109.2	103.1	94.73	84.53	74.35	62.65	56.38	48.13	48.35	52.05	36.76	24.06	15.75	12.82	9.078	7.656	6.154	4.939	6.578	13.51	29.96	176.1	872.6	 1116	60.62	-0.246	-1.873	-1.545	-1.621	-2.184	-1.516	-1.921	-1.871	-1.850	-2.209	-1.793	-1.952	-2.201	-2.616	-1.629	-2.240	-2.365	-1.776	-2.045	-1.942	-2.658	-2.882
490.0	-160.6	-108.7	-56.53	28.54	327.9	 1122	481.3	136.0	138.8	150.8	160.7	164.5	167.5	148.5	126.3	111.7	103.2	96.92	86.23	84.34	80.31	80.75	80.73	86.48	88.17	90.18	94.43	97.15	103.5	101.8	98.96	93.71	87.21	77.11	68.06	59.36	52.27	44.78	41.21	42.92	41.81	29.58	17.79	13.45	9.469	7.913	6.603	4.771	4.485	5.402	8.055	40.13	221.8	677.7	791.6	300.4	15.48	-0.949	-1.264	-1.706	-1.588	-1.521	-2.158	-1.895	-2.218	-1.661	-1.928	-1.611	-2.585	-1.955	-1.528	-2.260	-1.844	-1.910	-2.443	-2.527	-2.665
495.0	-180.3	-111.0	-11.66	38.66	94.57	642.9	 1105	159.7	130.7	140.4	132.5	149.0	144.3	136.2	106.5	96.27	91.83	83.25	74.61	73.73	73.67	72.01	71.27	75.42	74.60	79.07	83.92	85.01	91.25	91.97	87.54	82.43	78.41	71.16	62.03	53.89	48.49	43.12	36.26	34.59	34.40	35.59	20.82	13.90	11.26	7.984	7.023	5.293	4.240	3.850	3.222	9.923	50.27	152.7	409.8	 1122	459.1	15.35	-1.626	-1.984	-2.107	-2.124	-2.108	-2.029	-1.756	-2.221	-2.274	-1.535	-2.449	-1.641	-1.968	-2.156	-1.722	-2.372	-2.441	-2.055	-2.804
500.0	-217.9	-123.2	-21.95	29.09	47.92	225.8	 1295	419.0	105.7	113.6	135.9	128.7	128.3	114.8	90.98	85.14	80.91	73.06	67.34	62.69	63.34	62.06	64.18	65.13	70.40	70.92	76.03	77.50	81.93	84.59	79.85	76.22	68.60	64.70	55.95	49.44	42.42	39.34	33.77	32.34	27.92	33.15	26.63	16.53	11.75	8.529	6.761	6.012	4.624	3.834	3.509	3.387	11.75	34.27	98.36	619.0	 1236	326.6	2.467	-1.894	-1.742	-1.889	-2.018	-2.293	-1.515	-1.770	-1.900	-2.234	-2.126	-2.053	-2.062	-2.043	-1.803	-2.558	-1.977	-2.472	-2.167
505.0	-143.2	-84.37	-71.71	-19.48	30.53	76.67	927.8	937.0	108.5	116.1	118.3	118.2	120.7	98.63	86.51	79.24	74.19	69.25	60.89	57.65	58.05	58.81	57.94	60.34	62.10	64.39	66.14	70.26	71.78	75.13	75.35	68.84	63.17	59.14	52.39	47.04	39.24	36.62	31.26	28.57	23.84	27.26	29.12	19.23	11.76	8.331	6.319	6.229	4.685	3.600	2.810	1.295	3.002	7.975	22.55	158.3	862.4	 1055	63.27	-0.617	-1.218	-2.024	-1.801	-2.173	-1.777	-1.285	-1.979	-2.018	-2.475	-2.135	-2.866	-1.882	-2.134	-2.186	-2.375	-2.564	-2.028
510.0	-133.1	-121.1	-72.62	27.11	35.90	33.79	357.9	 1162	518.1	101.0	97.90	92.98	94.64	81.78	74.70	68.83	62.65	53.85	49.89	46.52	48.82	50.25	49.91	53.46	53.39	57.05	58.24	60.00	61.60	63.56	65.17	60.26	55.67	52.28	46.08	40.72	36.75	32.70	28.24	24.76	20.14	20.27	22.40	22.43	15.53	8.246	6.969	6.317	4.813	3.578	2.621	1.834	1.146	2.134	5.337	35.39	220.1	636.8	723.2	276.5	12.72	-1.701	-1.867	-2.192	-2.047	-1.828	-2.064	-2.027	-1.938	-2.372	-2.425	-2.260	-2.199	-2.284	-2.894	-2.965	-2.595
515.0	-143.2	-157.9	-103.6	2.931	50.26	25.54	111.0	638.1	 1236	171.5	72.17	68.48	77.05	65.88	57.62	53.44	48.78	46.56	42.98	39.81	43.47	41.49	42.03	43.93	46.23	47.98	47.66	48.75	52.11	53.50	54.08	52.01	49.22	44.99	39.74	34.73	30.09	28.62	24.86	21.65	18.42	16.22	14.61	18.96	18.91	11.38	6.625	5.478	4.558	3.998	3.043	2.521	1.153	1.219	1.589	7.730	49.06	142.9	348.8	898.7	386.2	9.721	-1.877	-1.710	-2.496	-2.180	-1.938	-1.598	-2.362	-2.899	-2.539	-2.368	-2.191	-2.084	-2.373	-2.494	-3.095
520.0	-147.0	-141.0	-82.45	-2.695	75.99	32.50	58.52	212.4	 1289	528.7	77.64	69.30	72.36	56.53	51.01	47.77	44.73	37.41	36.65	37.92	32.56	37.22	36.82	37.22	39.36	43.52	41.13	41.93	47.31	45.04	46.29	46.16	43.54	38.62	34.44	31.78	28.03	24.47	20.37	19.20	16.66	14.83	12.40	13.80	16.99	14.16	8.059	5.477	4.805	3.876	2.949	2.221	0.816	0.728	0.324	1.989	11.05	31.19	82.76	500.1	897.6	72.43	1.440	-1.938	-1.918	-2.381	-2.259	-2.172	-1.896	-2.570	-2.811	-2.633	-2.340	-2.765	-2.585	-2.131	-3.231
525.0	-90.29	-134.3	-73.88	-12.03	43.63	28.18	24.20	74.71	808.4	 1165	82.13	76.99	63.99	50.44	49.68	38.80	39.30	32.55	31.91	30.25	32.71	31.05	30.37	33.13	36.22	34.73	36.99	37.85	41.28	41.72	42.55	40.67	37.09	33.51	30.61	28.24	23.24	22.79	19.49	18.21	16.33	13.96	11.95	10.77	12.84	16.16	11.15	4.992	3.989	3.352	2.527	2.346	0.900	0.393	-0.014	0.833	2.496	7.284	17.88	127.3	598.8	627.8	58.90	-0.750	-1.161	-1.936	-2.429	-2.190	-2.257	-2.145	-2.337	-2.710	-2.657	-2.542	-2.600	-1.442	-3.099
530.0	-136.1	-143.2	-102.5	-38.45	-0.943	58.68	16.50	32.69	254.6	 1237	558.4	53.25	47.23	43.83	37.42	31.18	29.51	26.48	26.24	24.16	27.20	25.26	26.22	28.96	28.02	29.38	30.97	32.25	34.66	35.29	34.50	33.96	31.89	29.44	26.18	24.07	20.52	19.58	17.13	15.77	13.59	11.70	10.82	8.811	8.817	11.79	13.22	7.558	4.530	3.068	2.072	1.343	0.909	0.560	0.541	0.392	0.182	1.138	3.052	27.38	149.9	421.0	584.9	206.9	7.647	-2.210	-2.382	-2.451	-2.364	-1.966	-2.706	-2.207	-2.212	-2.822	-2.515	-2.450	-3.231
535.0	-154.7	-141.2	-115.8	-66.09	-15.76	35.23	23.31	15.44	77.29	516.3	 1302	146.8	38.82	39.48	30.21	23.76	26.38	23.23	20.99	18.50	23.00	20.98	22.19	28.06	22.32	23.60	25.80	26.72	28.61	29.33	30.00	27.92	23.45	25.79	23.30	19.44	18.40	16.88	15.33	12.81	11.20	10.17	9.496	6.950	7.243	7.213	11.24	9.757	5.429	3.485	2.005	1.287	1.439	0.473	-0.248	0.273	-0.180	-0.344	-1.115	5.673	32.35	93.61	268.3	621.5	250.8	4.614	-1.971	-2.442	-2.369	-1.772	-2.331	-2.176	-2.835	-2.428	-2.752	-2.526	-2.945
540.0	-215.3	-163.7	-95.24	-79.92	-44.07	31.79	27.96	14.99	35.84	168.0	 1295	611.5	34.48	27.94	21.00	17.50	23.64	17.84	19.13	15.46	17.05	18.65	16.81	20.23	18.22	22.07	22.91	20.98	23.13	23.08	25.47	23.55	22.71	21.65	17.62	16.80	14.14	13.60	12.90	11.67	9.343	8.959	7.089	6.094	5.563	5.926	7.635	9.091	7.118	3.219	2.174	1.486	1.300	0.569	-0.129	0.486	-0.452	-0.096	-1.214	0.021	6.174	19.97	62.34	335.0	608.3	67.16	-0.499	-2.025	-2.559	-2.790	-2.836	-2.300	-2.468	-1.853	-2.668	-2.315	-2.935
545.0	-197.9	-145.6	-82.24	-96.38	-32.57	-16.47	45.54	16.00	22.70	47.86	715.6	 1121	56.81	22.66	16.69	14.27	15.89	14.88	12.19	13.35	13.96	17.23	13.29	15.01	15.13	16.57	19.78	18.14	18.83	20.71	21.30	20.23	20.70	18.29	14.76	15.74	11.99	10.95	10.71	8.800	8.347	7.187	6.432	5.145	5.057	4.652	5.085	7.074	8.531	4.769	1.819	0.713	0.886	0.161	-0.077	-0.198	-0.204	-0.593	-0.821	-1.231	0.437	2.899	12.87	83.74	423.6	468.3	47.92	-1.814	-2.361	-3.344	-2.207	-2.664	-2.212	-2.031	-2.153	-2.683	-2.655
550.0	-172.6	-121.1	-96.34	-99.52	-37.27	-22.94	15.44	44.71	19.04	17.46	227.4	 1118	548.5	18.55	10.07	12.87	11.80	8.887	9.866	10.46	12.58	12.19	11.06	11.75	13.31	12.17	14.91	13.99	14.53	15.82	16.45	16.69	15.37	14.65	12.06	11.25	9.773	9.650	8.583	7.425	6.983	5.609	5.292	4.669	3.359	3.503	3.445	4.042	6.819	5.941	2.826	0.932	0.410	-0.375	-0.735	-0.679	-0.735	-1.072	-0.969	-1.194	-0.851	-0.731	1.792	17.08	106.6	297.7	365.3	128.7	2.593	-2.572	-2.588	-2.456	-2.567	-2.837	-2.878	-2.969	-2.954
555.0	-136.7	-116.2	-93.33	-68.37	-57.58	-48.54	-14.16	55.75	32.16	27.98	77.84	423.1	 1284	130.2	9.044	5.034	8.819	6.859	8.370	4.676	9.816	9.951	8.496	8.203	10.15	10.24	10.42	11.36	10.42	11.97	11.90	11.85	11.73	11.34	10.07	9.034	7.822	6.079	6.299	5.505	5.497	4.180	4.056	2.922	2.982	3.161	2.592	2.053	3.735	5.111	3.829	1.560	0.073	-0.459	-1.018	-0.821	-0.750	-1.233	-1.066	-1.453	-1.428	-1.887	-0.736	2.179	21.89	66.27	166.5	392.7	71.10	0.610	-2.803	-2.101	-2.493	-2.687	-2.956	-2.171	-2.430
560.0	-184.3	-152.7	-69.76	-84.95	-66.29	-39.49	-39.58	38.99	36.56	34.80	64.02	156.3	 1119	542.9	3.359	1.385	4.853	5.300	5.050	2.421	5.418	5.873	8.026	4.195	7.172	5.770	7.347	9.655	9.222	10.07	9.543	9.804	8.946	8.651	7.412	6.728	5.723	5.685	4.967	4.180	3.658	3.806	1.766	2.386	2.786	1.883	1.993	0.924	1.921	3.438	4.041	1.969	-0.425	-0.558	-0.873	-1.212	-1.534	-1.344	-1.285	-1.167	-1.654	-1.840	-1.771	-1.403	4.122	13.39	38.53	218.0	339.0	55.62	-1.138	-2.415	-2.995	-2.714	-2.428	-1.935	-3.045
565.0	-131.1	-152.3	-106.4	-98.78	-48.69	-31.55	-15.80	26.72	79.94	55.31	65.42	93.40	561.4	 1060	31.90	-0.114	3.367	0.600	2.459	2.560	2.397	1.442	4.664	5.125	6.295	6.277	7.308	5.897	6.087	6.373	7.637	8.867	5.208	5.958	5.239	5.789	4.497	4.275	3.875	3.427	2.713	2.498	2.088	1.507	1.906	2.041	1.949	0.510	0.970	1.942	2.493	1.852	-0.247	0.186	-0.353	-1.726	-0.707	-0.704	-2.007	-1.202	-1.080	-2.144	-1.566	-1.928	-0.491	1.275	7.080	55.20	251.9	272.7	31.91	-1.995	-2.994	-2.311	-2.270	-2.425	-2.300
570.0	-176.0	-124.6	-109.3	-80.64	-81.29	-44.58	-28.13	4.108	73.38	81.71	78.71	81.03	182.4	935.2	419.2	-1.403	-0.095	-1.423	-0.020	0.844	0.747	-0.105	1.165	2.289	2.463	4.165	4.398	3.198	2.963	5.157	3.789	4.739	4.931	4.530	3.869	4.427	3.157	2.101	2.640	2.720	1.353	1.437	0.952	0.954	0.551	0.187	0.789	0.091	0.055	0.820	0.710	0.861	0.729	-0.577	-1.106	-1.423	-0.703	-1.525	-1.677	-1.128	-0.982	-1.571	-1.762	-2.056	-1.609	-1.214	-0.281	10.86	64.09	178.1	210.4	41.97	0.277	-2.472	-2.396	-2.610	-3.173
575.0	-197.5	-138.8	-93.35	-98.84	-47.51	-40.96	-18.88	-6.441	52.90	121.2	95.11	78.99	82.36	315.3	982.6	94.22	-1.747	-3.298	-0.748	-1.210	0.447	-3.203	1.908	-0.422	0.354	3.292	0.413	0.582	2.143	3.213	1.330	2.977	2.785	1.604	1.887	1.691	1.137	1.360	1.896	1.837	0.732	-0.145	-0.072	-0.040	-0.363	-0.564	0.161	-1.285	-0.290	0.003	-0.427	0.357	1.528	0.036	-1.019	-0.747	-1.911	-1.655	-1.491	-1.558	-1.324	-1.612	-1.537	-2.266	-1.317	-1.747	-1.782	1.213	12.96	38.76	102.2	221.0	56.64	-1.445	-2.938	-2.851	-3.238
580.0	-146.0	-166.7	-105.9	-80.35	-80.87	-51.32	-29.97	-13.88	31.86	123.9	113.2	103.8	57.70	80.31	848.9	415.3	0.214	-5.729	-5.032	-1.722	-2.175	-2.668	0.226	0.660	1.079	1.261	-1.034	0.553	2.224	2.810	0.772	1.206	1.376	1.317	2.157	0.763	0.947	1.035	1.329	0.148	0.677	-0.481	-0.535	0.377	-0.933	-0.503	0.121	-1.311	-0.600	-0.455	-0.614	-0.986	0.364	0.387	-0.816	-1.296	-1.979	-1.902	-1.555	-1.767	-1.439	-1.875	-1.324	-2.238	-1.940	-1.720	-1.447	-1.210	1.413	6.970	23.20	131.9	197.5	35.82	-2.446	-2.863	-3.056
585.0	-221.3	-119.3	-102.6	-91.82	-87.58	-59.00	-29.32	-4.534	41.85	125.5	132.9	99.43	56.43	21.77	399.8	800.0	18.15	-7.898	-3.711	-1.050	-4.901	-4.359	-0.302	-1.527	-0.366	-0.728	-0.470	-0.754	1.139	1.457	-0.386	0.301	1.667	1.184	0.470	0.158	0.551	0.796	0.006	-0.455	-0.114	-1.011	-1.481	-0.589	-1.402	-0.505	-0.418	-1.022	-0.846	-0.208	-0.752	-1.351	0.140	0.070	-0.172	-1.502	-1.211	-1.292	-1.672	-1.714	-1.717	-1.913	-2.040	-2.312	-2.171	-1.763	-2.271	-1.865	-1.376	-0.206	3.873	33.06	151.1	151.5	16.06	-2.533	-3.385
590.0	-208.1	-141.5	-125.1	-70.55	-78.18	-55.67	-22.48	-4.006	18.82	79.55	135.4	99.25	57.30	6.770	99.72	682.0	292.9	-6.402	-3.793	-1.371	-4.852	-3.707	-2.798	-1.877	-2.701	-1.108	-1.460	-2.235	0.142	-0.734	0.554	-1.376	0.045	0.121	-0.537	-0.924	-0.266	0.007	-0.426	-0.684	-0.995	-0.797	-1.019	-0.965	-1.127	-0.597	-0.754	-0.588	-1.096	-0.610	-1.037	-1.356	-1.426	-0.969	-0.359	-1.376	-1.758	-1.926	-1.428	-1.316	-2.022	-2.008	-1.557	-2.135	-1.954	-1.956	-2.296	-1.894	-2.346	-1.754	-1.226	5.487	38.26	104.1	106.4	32.74	-1.664
595.0	-164.6	-156.6	-125.2	-56.72	-69.20	-45.03	-37.67	-9.068	15.99	65.43	115.7	107.6	45.96	8.797	14.11	213.7	668.0	53.71	-5.649	-4.468	-4.097	-2.321	-2.992	-3.226	-1.412	-3.241	-1.909	-1.897	-1.186	-0.720	-0.313	-0.926	-0.724	-1.751	-0.178	-1.431	-1.258	-0.155	-0.425	-1.458	-1.422	-1.126	-0.913	-1.616	-1.391	-1.411	-1.637	-1.403	-1.362	-0.506	-1.167	-1.628	-1.558	-1.606	-1.656	-0.966	-1.353	-1.557	-2.424	-2.085	-1.526	-1.993	-1.882	-1.479	-1.635	-1.420	-2.665	-2.144	-2.399	-2.487	-2.573	-1.159	7.229	22.60	59.53	135.2	39.02
600.0	-170.7	-100.6	-102.1	-68.53	-59.82	-28.47	-29.81	-8.775	9.691	51.38	91.41	113.3	33.27	11.07	-2.873	51.33	555.3	284.6	-5.451	-4.181	-3.871	-5.091	-3.992	-3.058	-2.143	-4.118	-2.406	-3.941	-1.198	-0.425	-1.912	-2.158	-1.720	-1.503	-1.813	-1.109	-1.192	-0.947	-1.106	-1.819	-1.255	-1.628	-1.920	-1.563	-1.975	-1.485	-1.099	-1.228	-1.589	-1.243	-1.146	-2.069	-1.645	-1.478	-1.275	-1.698	-1.204	-1.431	-2.350	-2.523	-2.090	-2.576	-2.147	-1.981	-2.245	-1.986	-2.546	-2.297	-2.050	-3.037	-1.975	-2.511	0.223	3.227	12.98	81.99	116.7
605.0	-134.4	-107.0	-97.61	-123.5	-61.73	-62.98	-32.50	-23.74	-2.673	44.40	75.34	111.0	47.89	12.37	-5.557	4.682	264.6	534.5	8.316	-5.264	-5.455	-4.619	-4.451	-3.117	-3.111	-4.367	-3.160	-5.091	-1.940	-1.751	-2.234	-1.804	-2.091	-1.946	-2.132	-1.934	-2.614	-1.952	-1.722	-1.547	-1.715	-2.158	-1.150	-1.469	-1.724	-1.761	-1.755	-1.130	-1.021	-1.304	-1.610	-2.002	-1.822	-1.624	-1.960	-1.605	-1.356	-1.692	-1.878	-2.216	-1.936	-2.257	-2.565	-1.595	-2.822	-1.174	-2.798	-2.684	-2.058	-2.168	-2.575	-2.456	-1.832	-1.448	0.701	20.65	91.68
610.0	-146.3	-155.0	-106.4	-84.60	-77.63	-62.82	-44.40	-25.75	3.120	33.93	42.96	81.06	63.28	5.585	-4.570	-4.036	65.79	459.0	209.3	-4.270	-5.221	-4.909	-5.245	-3.301	-4.354	-4.034	-3.262	-3.218	-2.522	-2.944	-2.364	-2.656	-1.824	-1.956	-2.175	-1.924	-1.713	-1.910	-1.159	-1.685	-1.776	-1.851	-1.748	-2.221	-1.684	-2.085	-1.907	-1.296	-1.677	-1.494	-1.319	-2.227	-2.062	-1.883	-2.360	-1.738	-1.045	-1.442	-1.966	-1.802	-2.104	-2.583	-2.038	-2.285	-2.110	-1.721	-2.142	-2.101	-2.607	-2.645	-2.637	-2.742	-2.244	-1.938	-2.083	2.539	23.11
615.0	-176.7	-178.6	-91.47	-87.96	-92.65	-63.95	-45.92	-24.72	5.155	34.64	37.98	57.95	63.61	11.34	-7.431	-9.088	13.45	149.6	489.0	39.46	-5.438	-2.847	-4.242	-4.736	-5.900	-1.975	-1.599	-2.796	-0.973	-2.749	-1.921	-3.569	-2.439	-1.913	-1.605	-2.420	-2.547	-1.609	-2.533	-2.012	-1.776	-1.923	-1.772	-1.687	-1.001	-2.544	-1.728	-1.352	-2.051	-1.130	-1.645	-2.226	-2.045	-1.677	-2.226	-1.947	-1.235	-1.363	-1.495	-1.722	-1.967	-2.427	-2.328	-1.757	-2.498	-2.058	-1.553	-2.491	-2.295	-2.709	-2.785	-2.836	-2.869	-2.316	-2.922	-1.346	2.816
620.0	-132.2	-155.8	-101.7	-82.50	-73.69	-71.56	-44.18	-21.87	-12.48	22.74	30.90	40.60	50.54	22.87	-11.94	-10.43	-4.850	32.33	418.4	207.5	-5.210	-4.316	-4.606	-4.998	-4.041	-4.017	-3.349	-2.222	-3.759	-2.811	-2.882	-4.290	-2.450	-2.677	-2.824	-2.071	-2.362	-3.032	-3.012	-2.422	-2.825	-2.593	-2.266	-2.484	-2.045	-1.969	-1.929	-2.224	-2.068	-1.307	-1.902	-2.050	-1.904	-1.857	-2.468	-2.495	-2.419	-2.280	-1.698	-1.283	-2.002	-3.041	-2.146	-2.077	-2.360	-2.202	-1.430	-2.770	-2.088	-2.691	-1.793	-2.930	-2.055	-2.276	-2.742	-2.551	-1.149
625.0	-160.2	-137.5	-115.5	-93.94	-58.37	-57.77	-37.68	-35.14	-10.38	12.06	25.41	34.69	33.72	26.98	-1.917	-8.551	-8.157	1.793	202.3	426.9	2.230	-4.911	-5.054	-5.880	-3.600	-4.683	-3.400	-3.636	-3.958	-2.894	-3.107	-3.374	-2.602	-3.414	-3.625	-1.663	-2.728	-2.129	-2.085	-2.435	-2.495	-2.232	-2.602	-2.345	-2.608	-1.760	-1.731	-2.060	-1.750	-1.621	-1.628	-1.656	-1.541	-1.659	-1.835	-2.101	-2.212	-2.291	-1.944	-1.011	-2.402	-2.736	-1.645	-2.412	-3.167	-2.461	-1.813	-2.005	-2.414	-2.623	-2.474	-2.859	-2.035	-1.983	-2.488	-2.213	-2.532
630.0	-146.2	-147.9	-118.6	-91.24	-86.95	-54.92	-42.74	-39.05	-19.05	9.693	18.89	16.83	19.92	21.59	3.900	-7.024	-6.354	-6.913	48.17	386.0	159.2	-4.146	-5.114	-5.264	-4.821	-3.584	-4.005	-4.410	-3.189	-3.773	-2.855	-3.219	-3.418	-2.422	-3.102	-2.314	-2.088	-2.308	-2.880	-2.828	-2.212	-2.718	-2.544	-2.479	-2.824	-1.989	-1.887	-2.411	-1.885	-1.317	-1.614	-1.894	-2.139	-2.175	-1.967	-2.197	-2.118	-2.049	-1.919	-1.636	-1.933	-2.161	-2.578	-2.095	-2.243	-2.176	-2.280	-1.985	-1.983	-2.078	-2.159	-2.786	-2.356	-2.659	-2.518	-3.312	-2.767
635.0	-165.4	-123.2	-105.6	-92.19	-70.73	-56.02	-48.00	-34.50	-17.33	10.27	4.130	1.682	7.347	7.620	15.64	-1.809	-8.501	-5.966	3.871	130.2	396.0	27.33	-4.350	-3.397	-4.512	-1.624	-3.544	-5.050	-3.566	-3.187	-2.913	-2.238	-3.526	-2.928	-2.056	-2.275	-2.442	-1.778	-2.249	-2.567	-1.941	-2.466	-2.550	-2.008	-2.443	-2.107	-1.606	-2.277	-1.815	-1.414	-1.647	-1.608	-2.366	-1.758	-1.781	-2.379	-2.173	-2.027	-2.549	-2.540	-2.558	-2.213	-2.242	-1.900	-2.185	-2.116	-2.108	-1.936	-2.440	-2.413	-1.951	-2.510	-2.327	-3.021	-2.071	-3.690	-2.652
640.0	-198.6	-155.2	-127.2	-94.58	-79.12	-65.50	-61.11	-20.26	-26.55	0.977	-3.386	-5.742	-0.536	7.502	22.86	0.510	-8.995	-8.133	-3.604	27.08	355.4	151.3	-4.138	-3.070	-4.389	-3.956	-3.903	-5.315	-3.667	-2.369	-2.712	-3.694	-2.596	-3.364	-2.087	-2.241	-2.052	-3.031	-2.228	-3.119	-2.364	-2.283	-2.706	-1.844	-1.931	-1.981	-1.548	-2.536	-1.612	-1.640	-1.915	-1.852	-2.109	-2.309	-1.622	-2.390	-2.084	-2.062	-1.976	-2.422	-2.006	-1.918	-1.974	-2.299	-2.224	-2.919	-2.373	-2.235	-2.937	-2.248	-3.118	-2.038	-2.202	-3.224	-2.569	-3.080	-3.429
645.0	-162.7	-125.5	-96.88	-83.69	-67.30	-52.56	-45.81	-34.98	-28.15	-17.28	-9.298	10.40	-5.129	-3.322	16.77	4.154	-5.154	-6.797	-4.543	2.792	173.6	326.7	2.263	-4.752	-6.665	-5.217	-4.815	-4.779	-3.185	-2.775	-3.923	-4.409	-2.865	-2.954	-3.436	-2.778	-1.926	-2.098	-2.092	-2.859	-2.820	-2.344	-2.191	-2.096	-2.181	-1.770	-1.823	-2.160	-1.753	-2.120	-1.756	-1.434	-2.307	-2.356	-2.326	-1.783	-2.506	-2.155	-1.799	-1.969	-2.476	-2.282	-2.091	-2.256	-2.124	-2.638	-2.574	-2.723	-2.859	-2.254	-2.750	-2.510	-2.581	-2.411	-2.545	-2.963	-3.096
650.0	-211.4	-161.7	-91.09	-92.76	-74.49	-63.08	-49.80	-41.06	-18.86	-14.32	-10.06	-2.615	-6.086	-0.288	8.903	9.246	2.395	-7.891	-8.842	-4.272	48.28	374.8	59.78	-5.873	-5.185	-3.524	-4.630	-4.473	-5.245	-3.227	-3.807	-3.295	-2.537	-3.230	-2.846	-1.970	-2.352	-2.194	-2.856	-2.808	-2.424	-2.671	-2.791	-2.579	-2.731	-2.181	-1.981	-1.795	-1.820	-1.899	-1.602	-1.880	-1.924	-1.972	-2.273	-2.013	-2.250	-2.099	-1.696	-1.976	-1.989	-2.024	-2.466	-1.757	-2.261	-2.548	-2.412	-2.433	-2.429	-2.218	-2.379	-2.222	-1.840	-2.324	-2.042	-2.437	-3.239
