Sample:	'1
File name:	G2025051503兴泉能源调节池.FD3
Run date:	'16:51:32, 05/19/2025
Operator:	dsjg
Comment:	'

Instrument
Model:	F-2700 FL Spectrophotometer
Serial number:	2198-001
ROM Version:	4J14000 07

Instrument parameters
Measurement type:	3-D scan
Data mode:	Fluorescence
EX  Start WL:	220.0 nm
EX  End WL:	600.0 nm
EX Sampling interval:	5.0 nm
EM  Start WL:	230.0 nm
EM  End WL:	650.0 nm
EM Sampling interval:	5.0 nm
Scan speed:	12000 nm/min
EX Slit:	5.0 nm
EM Slit:	5.0 nm
PMT Voltage:	700 V
Response:	Auto 
Corrected spectra:	Off
Contour interval:	50.000

Peak integration
Integration method:	Rectangular
Sensitivity:	1
Threshold:	1.000

Peaks
No.	ApexEX/EM(nm)	Height(Data)
1	225.0/375.0	110.3
2	225.0/410.0	167.0
3	230.0/405.0	166.4
4	230.0/505.0	66.33
5	235.0/420.0	147.3
6	235.0/515.0	56.02
7	240.0/525.0	44.73
8	245.0/270.0	147.2
9	245.0/540.0	41.41
10	270.0/240.0	5.547
11	270.0/300.0	 4998
12	270.0/585.0	365.8
13	295.0/410.0	259.1
14	300.0/335.0	146.3
15	305.0/340.0	161.0
16	315.0/355.0	106.3
17	320.0/360.0	130.3
18	325.0/365.0	120.0
19	330.0/370.0	96.85
20	335.0/380.0	108.0
21	340.0/385.0	105.7
22	345.0/390.0	81.85
23	350.0/395.0	81.92
24	355.0/405.0	80.41
25	360.0/410.0	66.31
26	365.0/415.0	63.09
27	370.0/425.0	59.83
28	375.0/430.0	48.48
29	380.0/435.0	44.61
30	385.0/445.0	41.59
31	390.0/300.0	15.01
32	390.0/450.0	32.88
33	395.0/455.0	29.67
34	400.0/465.0	26.73
35	405.0/470.0	21.11
36	410.0/475.0	19.15
37	415.0/485.0	16.81
38	420.0/490.0	14.19
39	425.0/495.0	13.48
40	430.0/505.0	11.52
41	435.0/300.0	8.404
42	435.0/510.0	9.281
43	440.0/515.0	8.109
44	445.0/525.0	7.526
45	450.0/530.0	6.145
46	455.0/535.0	5.282
47	460.0/545.0	4.687
48	465.0/550.0	3.427
49	470.0/560.0	3.081
50	475.0/565.0	2.491
51	485.0/580.0	1.639
52	540.0/300.0	23.19

Data points
	220.0	225.0	230.0	235.0	240.0	245.0	250.0	255.0	260.0	265.0	270.0	275.0	280.0	285.0	290.0	295.0	300.0	305.0	310.0	315.0	320.0	325.0	330.0	335.0	340.0	345.0	350.0	355.0	360.0	365.0	370.0	375.0	380.0	385.0	390.0	395.0	400.0	405.0	410.0	415.0	420.0	425.0	430.0	435.0	440.0	445.0	450.0	455.0	460.0	465.0	470.0	475.0	480.0	485.0	490.0	495.0	500.0	505.0	510.0	515.0	520.0	525.0	530.0	535.0	540.0	545.0	550.0	555.0	560.0	565.0	570.0	575.0	580.0	585.0	590.0	595.0	600.0
230.0	63.55	 1359	 3247	857.1	29.60	6.541	5.473	5.714	2.779	3.223	3.210	2.871	2.196	1.613	1.068	1.222	0.721	0.771	0.921	0.690	0.749	0.490	0.528	0.575	0.639	0.597	0.511	0.409	0.341	0.548	0.400	0.343	0.473	0.320	0.410	0.392	0.394	0.362	0.401	0.326	0.427	0.555	0.674	0.433	0.261	0.242	0.670	4.131	9.067	8.304	3.905	1.028	0.193	0.228	0.196	0.163	0.213	0.225	0.197	0.196	0.278	0.244	0.175	0.270	0.150	0.202	0.222	0.203	0.232	0.231	0.213	0.152	0.218	0.250	0.207	0.226	0.110
235.0	87.92	367.4	 1839	 2841	653.2	41.21	5.620	5.501	4.149	3.707	4.297	3.745	2.875	1.979	0.579	1.280	0.953	0.824	0.856	0.757	0.584	0.548	0.504	0.491	0.970	0.612	0.533	0.466	0.610	0.318	0.397	0.387	0.562	0.550	0.239	0.401	0.349	0.280	0.369	0.296	0.451	0.299	0.417	0.477	0.633	0.664	0.412	1.136	2.808	5.058	7.566	9.247	5.174	1.384	0.332	0.364	0.206	0.173	0.232	0.060	0.203	0.238	0.132	0.248	0.074	0.253	0.346	0.342	0.319	0.172	0.233	0.207	0.182	0.174	0.131	0.103	0.167
240.0	127.8	144.9	518.8	 2226	 2718	479.3	16.90	6.287	4.567	4.276	5.547	4.222	2.812	1.740	1.098	1.253	0.953	0.580	0.655	0.445	0.668	0.487	0.548	0.451	0.723	0.305	0.446	0.453	0.370	0.552	0.393	0.461	0.523	0.439	0.373	0.430	0.446	0.353	0.366	0.328	0.333	0.271	0.275	0.404	0.525	0.784	0.578	0.551	0.888	1.431	3.168	8.454	11.17	8.544	3.088	0.658	0.230	0.138	0.201	0.030	0.041	0.310	0.182	0.287	0.157	0.139	0.030	0.217	0.126	0.256	0.218	0.224	0.167	0.209	0.242	0.122	0.200
245.0	98.03	156.6	152.2	748.5	 2639	 2325	301.0	8.541	3.617	4.383	4.229	2.599	3.441	1.502	1.485	1.321	0.900	0.851	0.636	0.814	0.486	0.154	0.481	0.677	0.623	0.536	0.321	0.346	0.324	0.201	0.593	0.675	0.671	0.132	0.311	0.436	0.311	0.476	0.349	0.450	0.251	0.202	0.287	0.368	0.405	0.458	0.711	0.665	0.611	0.492	0.940	2.527	6.130	10.89	10.51	6.139	1.907	0.121	0.095	0.102	0.261	0.227	0.128	0.353	0.285	0.097	0.159	0.318	0.144	0.165	0.220	0.196	0.247	0.230	0.210	0.140	0.154
250.0	35.19	115.2	149.2	213.4	842.1	 2031	 2072	663.6	35.02	4.780	4.384	3.197	2.676	1.130	1.721	1.264	1.216	1.032	0.749	0.885	0.597	0.312	0.492	0.483	0.549	0.275	0.454	0.415	0.542	0.418	0.339	0.528	0.311	0.280	0.315	0.395	0.322	0.430	0.346	0.454	0.282	0.291	0.303	0.315	0.289	0.311	0.367	0.628	0.745	0.623	0.615	0.905	1.695	3.354	5.732	8.002	8.517	6.840	3.391	1.177	0.352	0.243	0.258	0.185	0.185	0.217	0.235	0.203	0.176	0.137	0.163	0.238	0.118	0.273	0.203	0.043	0.183
255.0	20.66	40.45	110.8	172.3	230.4	506.8	 1453	 2333	377.9	29.33	6.224	4.619	3.819	1.473	2.422	1.106	1.145	1.082	0.832	0.685	0.744	0.679	0.850	0.368	0.308	0.407	0.659	0.389	0.421	0.410	0.313	0.288	0.315	0.200	0.396	0.327	0.245	0.347	0.368	0.420	0.374	0.287	0.380	0.281	0.251	0.253	0.337	0.579	0.384	0.413	0.628	1.073	0.836	1.074	1.619	2.010	3.083	5.912	9.556	8.335	4.097	0.890	0.197	0.201	0.310	0.193	0.251	0.314	0.292	0.204	0.258	0.049	0.301	0.345	0.242	0.182	0.232
260.0	20.17	20.40	48.95	160.9	170.1	135.9	435.9	 1770	 2012	293.8	15.02	4.520	3.942	1.953	1.823	1.039	1.490	1.338	0.691	0.984	0.950	0.843	0.608	0.406	0.334	0.138	0.593	0.420	0.467	0.335	0.456	0.392	0.411	0.521	0.428	0.452	0.530	0.204	0.393	0.258	0.379	0.432	0.231	0.253	0.226	0.260	0.347	0.350	0.276	0.362	0.488	0.948	1.146	0.901	0.653	0.543	0.915	1.642	4.163	7.517	8.647	6.329	2.411	0.670	0.304	0.273	0.265	0.308	0.309	0.103	0.298	0.299	0.238	0.102	0.268	0.048	0.160
265.0	18.47	17.63	17.47	77.68	173.9	105.9	115.8	585.0	 1913	 1597	204.2	8.134	4.804	2.210	1.792	1.324	1.700	1.460	0.811	0.893	0.844	0.537	0.804	0.847	0.221	0.346	0.737	0.512	0.649	0.400	0.290	0.227	0.397	0.502	0.270	0.348	0.559	0.192	0.465	0.354	0.205	0.391	0.322	0.289	0.368	0.505	0.348	0.109	0.225	0.219	0.233	0.543	0.865	1.140	0.855	0.582	0.305	0.658	1.234	2.321	4.569	7.445	7.053	4.035	1.388	0.177	0.159	0.291	0.261	0.144	0.204	0.169	0.329	0.099	0.254	0.160	0.275
270.0	39.98	30.05	21.25	25.95	86.94	147.2	125.8	168.2	616.9	 1362	 1406	531.3	52.19	5.880	2.127	2.062	1.174	1.316	0.644	0.648	0.425	0.609	0.789	0.749	0.546	0.287	0.360	0.449	0.387	0.449	0.382	0.423	0.457	0.509	0.322	0.389	0.364	0.297	0.536	0.324	0.343	0.459	0.412	0.499	0.509	0.489	0.333	0.276	0.258	0.172	0.210	0.291	0.439	0.645	0.857	1.000	0.879	0.787	0.541	0.992	1.400	2.380	3.686	4.702	5.310	4.798	3.046	1.339	0.440	0.313	0.219	0.129	0.236	0.140	0.194	0.162	0.342
275.0	221.5	116.6	49.90	26.81	43.10	107.6	241.6	290.6	403.1	624.2	 1294	 1789	772.1	62.60	6.351	1.903	1.778	2.165	1.132	1.125	1.049	0.289	1.009	0.779	0.413	0.321	0.670	0.554	0.661	0.620	0.540	0.374	0.982	1.610	1.569	1.149	0.842	0.815	1.058	0.930	0.680	1.212	0.919	0.993	1.011	0.914	0.812	0.714	0.457	0.240	0.328	0.436	0.313	0.398	0.548	0.559	1.166	1.762	1.422	1.388	1.508	2.029	2.407	3.173	3.642	5.129	7.014	7.517	4.652	1.451	0.531	0.151	0.226	0.172	0.156	0.103	0.240
280.0	583.6	319.5	117.0	51.18	71.36	145.7	348.4	511.1	885.6	 1210	 1550	 2047	 1787	213.9	25.05	3.546	2.285	1.719	0.939	0.745	1.081	0.683	0.923	0.474	0.659	0.567	0.356	0.742	1.018	0.687	0.280	0.730	2.165	3.738	3.783	2.595	2.045	1.902	1.809	2.055	2.138	2.455	2.385	2.257	1.996	2.065	1.444	0.985	0.542	0.476	0.423	0.613	0.419	0.587	0.693	0.775	1.274	1.908	2.817	3.441	3.715	4.375	4.916	5.728	6.545	7.039	7.238	8.554	8.700	6.803	3.080	0.797	0.291	0.539	0.234	0.305	0.207
285.0	 1085	596.7	211.9	105.5	122.1	230.8	495.3	961.7	 1618	 2167	 2482	 2364	 1932	 1194	160.5	8.637	2.416	2.194	0.934	1.577	0.869	0.956	0.749	0.580	0.592	0.718	0.400	0.594	0.398	0.381	0.376	1.566	3.259	6.241	6.710	5.058	4.061	3.679	3.505	3.768	3.787	3.827	3.926	3.897	3.729	3.291	2.307	2.056	1.131	0.797	0.530	0.673	0.638	0.629	1.010	1.258	1.690	2.935	3.522	5.191	6.825	8.493	8.906	10.21	11.44	10.90	10.24	9.691	8.193	7.319	7.087	4.823	2.082	0.577	0.244	0.457	0.418
290.0	 1730	 1026	419.2	199.4	198.3	363.1	703.0	 1367	 2402	 3413	 3867	 3346	 1876	 1019	881.5	428.7	36.30	2.961	1.763	1.854	1.217	0.769	0.797	0.822	0.995	0.998	0.664	0.741	0.700	0.484	0.775	1.963	5.315	9.750	11.13	8.506	6.532	5.763	5.393	5.804	5.783	6.082	5.989	6.370	5.864	5.296	3.934	3.111	1.913	1.228	0.880	0.890	0.750	0.885	1.176	1.785	2.423	3.605	5.012	6.683	9.174	12.10	14.43	16.54	17.94	16.65	15.63	13.67	9.727	5.855	4.443	4.746	4.996	4.669	3.257	1.398	0.483
295.0	 2242	 1338	626.9	296.1	268.5	448.9	860.7	 1639	 2839	 4192	 4870	 4137	 2135	689.8	523.4	933.6	625.7	35.09	2.856	2.186	1.626	1.249	1.152	1.285	1.027	0.857	0.852	0.523	0.857	0.401	0.642	2.335	6.783	12.63	14.40	11.44	8.185	8.249	6.927	6.811	7.210	7.532	7.591	7.796	7.693	7.345	5.070	3.883	2.719	1.692	1.224	1.018	1.269	1.225	1.670	1.878	2.874	3.958	5.921	8.213	10.71	14.16	16.77	19.54	22.94	21.57	19.51	16.78	11.54	6.302	3.689	2.549	2.284	2.989	5.014	6.410	3.926
300.0	 2359	 1502	720.4	349.1	284.4	470.2	894.3	 1673	 2873	 4226	 4998	 4374	 2236	646.8	257.9	547.5	 1033	440.7	13.28	2.535	2.106	1.503	1.106	1.204	0.815	0.802	1.001	0.396	0.650	0.556	0.856	2.259	6.916	13.06	15.01	11.84	9.322	8.312	7.317	7.349	8.041	7.775	7.990	8.404	7.720	7.417	5.492	4.497	3.085	1.963	1.300	1.459	1.242	1.321	1.672	1.978	2.798	4.189	5.855	8.221	10.74	13.93	17.20	19.69	23.19	22.83	21.37	18.17	12.00	6.672	3.704	2.101	1.501	1.559	2.230	4.273	6.386
305.0	 2297	 1518	748.2	376.1	289.8	440.7	855.0	 1571	 2708	 3947	 4669	 4234	 2239	645.7	196.4	196.8	634.6	 1003	105.5	5.706	2.041	1.787	1.313	1.038	1.019	0.981	1.022	0.830	0.927	0.506	0.837	2.451	6.614	12.25	14.14	11.77	9.337	8.041	7.289	7.289	7.362	7.499	7.777	7.750	7.824	7.748	5.909	4.377	3.222	1.994	1.610	1.286	1.222	1.427	1.531	2.027	2.932	4.002	5.680	7.530	10.24	13.25	15.88	18.51	21.04	21.22	20.26	18.10	12.18	6.359	3.689	2.124	1.400	1.026	1.105	1.598	3.052
310.0	 1968	 1376	703.6	360.3	260.9	380.1	712.6	 1310	 2265	 3297	 3894	 3534	 2033	677.2	183.6	81.43	186.5	530.6	740.7	396.0	27.57	1.608	1.575	1.388	0.804	0.906	0.954	0.683	0.938	0.786	0.746	1.972	5.504	10.27	12.14	9.929	8.051	7.181	6.248	6.258	6.155	6.598	6.782	6.563	6.399	6.433	4.988	3.895	2.982	1.911	1.429	1.316	1.293	1.281	1.373	1.753	2.521	3.338	4.799	6.406	8.705	11.19	13.20	15.38	17.42	16.84	16.23	15.41	10.97	6.905	3.876	2.272	1.323	0.985	0.902	0.892	1.038
315.0	 1585	 1130	601.8	319.8	220.2	306.2	560.5	 1023	 1742	 2572	 3021	 2715	 1569	680.6	210.4	55.46	54.62	131.6	312.7	802.1	568.3	29.06	1.555	1.030	0.888	0.950	0.943	0.623	0.530	0.694	0.899	1.676	4.447	7.832	9.744	7.916	6.557	5.854	5.505	5.294	5.268	4.881	5.080	5.417	5.020	4.995	4.159	3.208	2.569	1.813	1.333	1.182	1.159	0.892	1.205	1.573	2.166	2.684	3.703	5.465	6.918	8.630	10.57	12.42	13.18	13.27	12.29	11.77	8.363	5.485	3.685	2.833	1.664	0.993	0.667	0.622	0.623
320.0	 1300	962.1	541.5	278.1	183.2	251.0	455.0	819.5	 1397	 2042	 2416	 2174	 1251	553.9	300.2	77.96	25.12	38.11	87.41	386.0	931.8	403.3	11.27	1.228	1.160	1.114	0.820	0.693	0.627	0.740	0.707	1.342	3.606	6.173	8.095	6.864	5.178	4.888	4.416	4.114	3.893	3.974	4.501	4.256	4.013	4.071	3.056	2.889	2.181	1.305	1.233	1.290	0.892	0.669	0.965	1.270	1.712	2.222	3.147	4.563	5.448	6.669	8.478	9.605	10.99	10.77	9.916	9.262	6.748	4.260	2.846	2.379	2.193	1.291	0.760	0.556	0.525
325.0	 1073	780.1	458.2	241.4	155.3	202.9	362.2	656.1	 1112	 1631	 1935	 1740	997.3	407.9	267.1	151.6	27.56	16.96	26.82	112.7	501.7	919.4	82.76	4.943	1.415	1.116	0.915	0.970	0.696	0.816	0.792	1.180	3.192	5.101	6.187	5.491	4.528	4.230	3.578	3.437	3.303	3.276	3.686	3.676	3.481	3.150	2.650	2.360	1.872	1.160	1.036	0.981	0.750	0.747	0.812	1.060	1.571	1.792	2.417	3.522	4.456	5.855	6.762	7.718	8.632	8.516	8.008	7.566	5.427	3.307	2.279	1.681	1.452	1.662	1.317	0.851	0.590
330.0	796.5	582.2	352.9	185.9	118.6	151.9	274.8	482.4	805.8	 1186	 1419	 1276	740.1	292.5	156.4	164.2	107.6	24.92	13.38	31.61	135.7	443.9	614.7	327.8	23.43	1.313	1.093	1.081	0.870	0.772	0.629	1.277	2.452	4.013	4.707	4.085	3.365	3.067	2.524	2.647	2.496	2.591	2.687	2.655	2.657	2.478	2.078	1.840	1.385	1.012	0.920	0.827	0.564	0.572	0.733	0.846	1.120	1.459	1.810	2.528	3.210	4.445	4.945	5.990	6.627	6.278	6.099	5.689	3.941	2.561	1.582	1.187	0.975	1.051	1.162	1.328	1.090
335.0	573.2	429.8	268.6	143.8	93.40	117.0	191.1	342.5	581.0	832.2	995.5	898.4	533.2	220.4	93.21	78.13	146.3	102.3	17.33	13.67	37.24	107.5	239.0	731.1	495.0	27.66	1.389	1.154	0.979	0.756	0.792	1.019	1.827	3.098	3.360	2.925	2.685	2.247	1.983	1.950	1.737	1.802	1.790	1.831	1.924	1.877	1.521	1.224	1.249	0.772	0.611	0.690	0.536	0.522	0.616	0.612	0.935	1.240	1.314	1.791	2.436	3.299	3.619	4.149	4.383	4.698	4.287	4.105	2.996	1.944	1.093	0.947	0.639	0.564	0.672	0.738	1.186
340.0	437.0	347.1	219.3	117.9	75.07	100.1	152.2	264.9	441.3	636.2	758.4	683.8	410.4	171.4	70.79	42.90	85.79	161.0	58.02	11.41	15.16	30.59	64.59	324.2	872.9	367.1	11.27	1.051	0.896	1.070	0.641	0.900	1.454	2.435	2.776	2.271	2.220	1.915	1.646	1.424	1.498	1.476	1.465	1.347	1.542	1.534	1.237	1.087	1.029	0.700	0.581	0.670	0.459	0.351	0.481	0.526	0.775	1.049	1.145	1.357	1.884	2.530	2.854	3.209	3.461	3.462	3.526	3.033	2.238	1.748	1.046	0.882	0.714	0.475	0.493	0.491	0.514
345.0	341.2	269.6	185.3	98.73	67.75	80.74	121.8	211.5	349.7	497.7	580.2	530.6	319.2	136.7	61.17	31.91	41.04	121.4	118.7	28.03	9.707	12.93	20.25	89.77	460.0	845.1	70.37	4.133	1.089	1.258	0.576	0.827	1.219	1.765	2.044	2.024	1.713	1.517	1.531	0.972	1.192	1.304	1.287	1.018	1.151	1.142	1.001	0.929	0.727	0.460	0.610	0.432	0.381	0.512	0.407	0.469	0.688	0.822	1.055	1.078	1.405	1.827	1.896	2.599	2.904	2.937	2.579	2.307	1.880	1.561	0.794	0.726	0.433	0.409	0.322	0.308	0.452
350.0	250.1	199.8	134.4	79.80	58.46	62.42	92.70	152.0	250.8	351.1	411.6	380.3	236.1	109.1	51.07	28.50	25.83	51.53	110.8	105.0	28.66	10.35	11.42	26.30	120.0	398.9	536.0	285.7	21.70	1.188	0.776	0.700	1.345	1.443	1.596	1.288	1.370	1.230	1.087	1.040	0.985	0.911	0.888	0.747	1.041	0.839	0.877	0.779	0.751	0.490	0.504	0.380	0.402	0.481	0.408	0.403	0.482	0.720	0.768	0.866	1.045	1.293	1.601	1.749	2.029	1.981	2.067	1.792	1.482	1.013	0.841	0.619	0.259	0.347	0.380	0.295	0.331
355.0	173.4	146.3	100.6	66.11	51.28	49.84	67.22	110.6	173.2	243.8	290.5	271.9	171.9	86.79	46.62	31.30	25.70	28.49	46.99	106.3	94.48	22.40	10.58	12.76	33.01	95.78	200.1	626.5	437.9	26.15	1.061	1.054	0.954	1.382	1.160	0.935	1.156	1.040	1.030	0.830	0.541	0.633	0.818	0.670	0.750	0.546	0.735	0.653	0.577	0.490	0.381	0.395	0.336	0.451	0.295	0.327	0.475	0.704	0.520	0.761	0.929	1.017	1.143	1.346	1.493	1.684	1.412	1.230	0.962	0.846	0.722	0.567	0.322	0.314	0.412	0.205	0.503
360.0	144.2	125.7	86.88	70.11	43.41	43.69	58.35	89.96	136.4	194.3	221.6	209.5	138.3	77.17	49.92	37.52	31.87	29.04	29.62	58.96	130.3	67.02	14.08	11.18	14.60	27.81	53.60	269.7	750.7	328.7	10.42	1.231	1.068	1.071	1.187	0.925	0.780	0.915	0.922	0.727	0.569	0.661	0.715	0.581	0.622	0.752	0.698	0.712	0.473	0.588	0.406	0.425	0.439	0.394	0.296	0.281	0.502	0.596	0.506	0.435	0.802	0.715	1.118	1.056	1.229	1.303	1.193	0.966	0.770	0.569	0.683	0.505	0.348	0.425	0.361	0.408	0.392
365.0	132.4	111.0	82.79	63.23	48.39	38.73	51.94	74.63	111.4	155.3	179.6	170.8	121.5	77.84	58.51	49.69	42.76	38.70	31.45	37.02	88.48	120.0	36.85	12.52	11.78	13.50	18.03	73.14	396.1	746.1	64.86	4.015	1.235	1.098	1.163	0.994	0.830	0.721	0.888	0.782	0.726	0.774	0.469	0.579	0.628	0.697	0.525	0.616	0.453	0.310	0.366	0.525	0.374	0.335	0.374	0.277	0.386	0.498	0.460	0.355	0.672	0.565	0.862	0.947	1.134	1.167	1.076	0.823	0.776	0.705	0.478	0.379	0.513	0.326	0.387	0.505	0.387
370.0	111.6	102.1	81.19	66.49	50.53	43.57	48.19	64.14	92.01	124.1	149.1	144.6	115.8	91.03	81.90	73.76	68.27	57.79	43.49	37.04	47.05	92.90	96.85	39.09	13.86	12.07	11.40	21.79	102.3	356.6	494.7	252.8	18.92	1.270	1.127	1.111	0.828	0.799	0.942	0.727	0.697	0.618	0.553	0.484	0.639	0.618	0.530	0.591	0.432	0.284	0.408	0.457	0.394	0.341	0.291	0.300	0.407	0.404	0.411	0.364	0.539	0.616	0.722	0.778	0.991	1.097	0.696	0.831	0.692	0.588	0.480	0.559	0.599	0.532	0.544	0.569	0.589
375.0	102.3	110.3	95.46	76.50	58.46	45.89	47.23	55.39	79.29	100.3	125.7	133.2	125.9	112.4	114.9	110.0	103.0	85.04	64.64	47.93	39.50	47.26	86.12	101.8	31.94	13.70	10.97	11.08	27.89	85.05	183.9	559.1	366.1	21.91	1.405	1.213	0.909	0.861	0.909	0.715	0.856	0.543	0.652	0.394	0.596	0.589	0.502	0.419	0.448	0.413	0.415	0.391	0.443	0.346	0.343	0.287	0.428	0.365	0.356	0.399	0.516	0.580	0.637	0.719	0.819	0.770	0.599	0.801	0.684	0.747	0.576	0.651	0.771	0.594	0.806	0.728	0.821
380.0	109.3	96.69	103.2	93.27	66.20	49.93	50.28	56.87	71.37	95.18	119.7	132.8	138.7	137.6	145.9	142.3	132.5	111.4	82.47	60.59	42.34	37.41	51.62	108.0	72.13	18.87	11.82	9.411	12.46	23.82	48.09	242.4	625.8	254.7	7.969	1.165	1.018	1.072	0.869	0.577	0.522	0.610	0.496	0.578	0.566	0.521	0.344	0.427	0.594	0.472	0.426	0.520	0.411	0.403	0.483	0.376	0.300	0.345	0.485	0.412	0.374	0.566	0.767	0.645	0.678	0.794	0.702	0.840	0.747	0.879	0.695	0.987	0.900	0.836	0.850	0.919	0.793
385.0	111.1	111.7	115.3	104.0	74.41	51.37	51.55	58.52	71.27	90.56	114.9	138.3	151.0	161.7	176.0	172.4	157.6	134.0	98.85	69.66	48.24	37.30	36.53	70.86	105.7	40.80	13.14	9.209	8.852	10.29	14.68	64.30	334.4	577.2	52.18	3.218	1.221	1.039	0.905	0.761	0.572	0.473	0.416	0.583	0.343	0.506	0.341	0.440	0.506	0.464	0.386	0.580	0.526	0.408	0.475	0.411	0.350	0.375	0.277	0.348	0.404	0.525	0.575	0.497	0.633	0.841	0.838	0.769	0.825	0.795	0.868	0.936	0.934	0.965	1.166	1.063	1.079
390.0	117.1	125.5	129.1	115.2	83.09	56.39	49.53	58.01	68.94	87.60	115.9	145.6	168.1	191.2	206.4	206.3	193.2	161.4	119.4	83.28	57.18	41.39	33.57	39.88	73.01	81.85	38.14	12.26	8.529	7.850	7.570	17.93	85.63	277.3	377.5	188.0	14.71	1.292	1.226	0.923	0.751	0.604	0.576	0.614	0.458	0.499	0.529	0.394	0.578	0.539	0.503	0.620	0.556	0.564	0.536	0.370	0.409	0.496	0.478	0.398	0.449	0.541	0.574	0.678	0.689	0.628	0.789	0.788	0.942	0.877	0.892	0.945	1.086	1.173	1.250	1.346	1.098
395.0	123.7	134.1	135.2	133.5	91.92	63.99	56.88	58.94	68.83	85.78	115.3	153.2	181.8	216.6	233.3	240.6	223.7	183.3	137.0	95.17	63.58	44.96	35.26	31.25	37.03	63.60	81.92	30.79	9.554	7.838	6.601	7.706	21.97	65.82	138.9	411.8	272.2	16.35	1.251	0.972	1.215	0.646	0.764	0.519	0.292	0.468	0.627	0.484	0.632	0.656	0.539	0.609	0.773	0.503	0.459	0.474	0.375	0.470	0.529	0.395	0.402	0.514	0.630	0.680	0.676	0.781	0.857	0.995	0.830	1.003	0.998	0.957	1.376	1.400	1.312	1.383	1.366
400.0	137.5	146.8	154.5	140.6	100.3	69.29	52.18	55.89	66.19	85.64	114.0	152.8	192.7	227.6	247.3	252.1	232.9	195.2	147.2	102.9	67.58	48.62	38.19	29.39	27.46	35.83	77.16	65.55	16.59	7.831	6.287	5.681	8.100	17.65	35.71	181.2	451.1	177.0	5.894	1.240	1.173	0.694	0.691	0.459	0.605	0.635	0.624	0.479	0.804	0.579	0.512	0.597	0.575	0.692	0.461	0.550	0.576	0.521	0.470	0.395	0.457	0.505	0.560	0.766	0.731	0.718	0.764	0.788	0.989	1.024	1.277	0.942	1.213	1.424	1.108	1.593	1.499
405.0	149.6	160.5	166.4	151.6	106.5	70.60	59.99	53.58	64.63	83.15	110.2	151.3	192.2	233.0	254.4	256.8	238.9	197.9	151.6	104.5	69.06	49.19	37.95	29.45	25.47	24.65	46.04	80.41	38.52	9.946	6.428	5.299	4.981	6.518	11.17	47.46	235.4	402.9	43.79	2.804	1.122	1.025	0.761	0.675	0.435	0.761	0.637	0.625	0.882	0.709	0.632	0.511	0.660	0.623	0.529	0.470	0.419	0.515	0.541	0.449	0.408	0.578	0.525	0.789	0.496	0.708	0.797	0.933	1.159	1.042	1.296	1.138	1.302	1.552	1.204	1.690	1.310
410.0	135.4	167.0	163.8	143.6	110.3	68.83	58.51	55.93	63.84	79.39	105.2	146.9	192.4	229.8	253.6	259.1	240.3	197.9	149.3	104.5	70.39	49.78	37.86	29.32	24.32	20.94	24.48	48.66	66.31	32.11	8.682	5.741	4.798	5.044	5.412	13.14	59.69	197.1	293.8	152.4	11.24	1.040	0.789	0.765	0.611	0.531	0.584	0.633	0.625	0.611	0.514	0.585	0.600	0.591	0.499	0.534	0.402	0.462	0.482	0.364	0.480	0.565	0.420	0.491	0.546	0.680	0.682	0.998	1.034	1.027	1.084	1.142	1.454	1.468	1.383	1.386	1.451
415.0	133.4	155.2	151.7	139.0	104.3	64.77	56.06	52.61	59.41	75.28	101.2	138.9	183.4	220.5	240.1	246.5	227.6	189.8	142.7	99.05	68.70	48.11	36.79	29.27	23.13	19.22	17.32	22.80	43.40	63.09	24.88	6.940	4.842	4.413	4.445	5.456	15.45	46.85	107.5	317.1	183.4	10.59	0.752	0.840	0.705	0.694	0.709	0.713	0.750	0.626	0.641	0.766	0.506	0.487	0.591	0.472	0.537	0.495	0.449	0.400	0.204	0.648	0.343	0.638	0.682	0.534	0.439	0.849	0.923	0.828	1.153	1.162	1.322	1.349	1.648	1.320	1.298
420.0	135.3	145.2	141.3	147.3	96.54	62.06	50.45	47.97	55.72	69.61	97.26	132.7	175.0	213.0	227.9	232.0	217.4	178.7	135.7	95.34	65.46	47.31	35.09	28.73	21.45	19.06	16.10	15.42	22.20	54.55	50.01	13.79	5.119	4.200	4.303	4.061	5.502	12.75	27.52	139.1	321.3	45.05	3.903	0.704	0.856	0.816	0.783	0.538	0.580	0.742	0.584	0.800	0.610	0.494	0.654	0.518	0.567	0.380	0.377	0.447	0.444	0.572	0.450	0.592	0.661	0.707	0.634	1.018	0.842	1.058	1.134	1.096	1.355	1.313	1.406	1.228	1.311
425.0	135.4	140.8	140.6	136.8	94.86	60.78	44.27	46.04	53.06	62.95	89.60	124.2	160.8	195.4	213.6	216.9	202.0	169.3	127.5	91.82	63.51	44.46	34.04	26.69	21.15	17.96	15.15	13.32	13.94	30.86	59.83	32.25	7.226	4.370	3.947	3.783	3.681	4.773	8.372	36.60	176.5	274.7	37.84	1.753	0.854	0.889	0.751	0.520	0.608	0.616	0.403	0.765	0.576	0.414	0.588	0.516	0.513	0.436	0.542	0.394	0.471	0.445	0.442	0.533	0.551	0.723	0.731	0.834	0.760	0.767	1.046	0.911	1.239	1.239	1.213	1.395	1.209
430.0	152.3	129.2	121.7	115.1	86.98	54.89	43.70	44.02	47.02	62.62	82.91	109.4	147.7	177.0	192.2	195.7	181.3	153.7	118.1	83.56	58.74	41.52	31.11	25.26	20.07	17.09	14.48	12.75	11.60	15.63	34.45	48.48	24.84	6.948	4.135	3.639	3.339	3.249	3.811	10.01	45.62	145.8	215.9	103.1	7.995	0.778	0.736	0.636	0.598	0.581	0.546	0.677	0.627	0.472	0.444	0.427	0.378	0.469	0.366	0.478	0.427	0.395	0.416	0.509	0.423	0.567	0.690	0.732	0.708	0.874	0.967	0.838	1.058	1.002	1.071	1.283	1.119
435.0	460.1	118.7	118.2	105.2	80.74	55.43	41.05	41.55	42.59	56.74	75.68	96.75	129.1	153.1	172.2	175.0	158.7	137.7	106.6	73.77	51.98	36.84	27.79	23.59	18.19	16.98	14.13	12.47	11.15	11.18	15.19	30.66	44.61	19.99	5.025	3.201	3.339	2.753	2.755	3.768	11.72	34.36	83.54	237.2	136.1	6.309	0.667	0.444	0.598	0.552	0.618	0.575	0.456	0.379	0.473	0.314	0.406	0.397	0.306	0.354	0.390	0.552	0.388	0.517	0.403	0.558	0.601	0.663	0.598	0.656	0.811	1.094	0.894	0.884	0.947	0.977	0.919
440.0	932.9	149.7	124.6	89.03	71.87	54.38	39.04	38.13	41.26	51.90	69.60	88.71	115.9	139.0	152.6	154.7	144.1	123.3	97.64	68.20	46.89	33.57	26.12	21.55	17.93	15.42	12.84	11.80	10.48	10.05	10.56	15.84	38.54	36.77	10.47	3.419	3.376	2.759	2.742	2.491	3.842	9.078	21.09	119.0	265.7	38.53	1.832	0.481	0.444	0.568	0.394	0.577	0.513	0.416	0.487	0.343	0.329	0.343	0.358	0.496	0.287	0.364	0.302	0.509	0.298	0.414	0.678	0.627	0.589	0.562	0.756	0.660	0.788	0.872	0.817	0.814	0.961
445.0	 1315	326.1	105.4	74.76	63.42	48.65	35.99	35.68	39.17	50.64	63.05	78.87	107.9	122.1	136.9	137.4	129.2	111.3	85.62	61.33	43.52	32.08	24.19	20.60	17.42	14.46	12.42	11.34	10.19	9.333	8.648	9.722	21.75	41.59	22.01	5.274	3.036	2.703	2.540	2.590	2.273	3.521	6.311	32.08	167.4	223.6	26.25	0.952	0.525	0.654	0.464	0.451	0.400	0.659	0.394	0.300	0.300	0.291	0.433	0.381	0.363	0.445	0.285	0.451	0.399	0.421	0.524	0.685	0.654	0.579	0.631	0.572	0.756	0.862	0.849	0.827	0.816
450.0	 1051	986.4	149.9	72.54	59.71	44.70	33.01	32.85	33.16	43.20	54.49	70.64	89.00	104.0	118.1	118.1	109.4	96.00	73.70	52.60	37.49	28.69	21.55	18.43	15.91	13.41	12.31	10.91	9.812	8.920	8.075	7.854	10.47	24.16	32.88	17.36	4.639	2.966	2.295	2.487	2.216	2.084	2.591	8.443	43.47	134.9	186.6	79.52	4.929	0.561	0.535	0.499	0.333	0.449	0.474	0.320	0.300	0.454	0.444	0.395	0.470	0.264	0.384	0.336	0.443	0.439	0.402	0.585	0.646	0.541	0.565	0.575	0.618	0.746	0.717	0.691	0.767
455.0	412.3	 1412	571.5	63.71	50.24	36.01	26.57	30.29	29.93	38.91	43.83	58.68	75.32	85.41	95.49	98.15	92.63	79.71	60.27	43.40	32.28	24.05	18.91	16.64	14.69	12.03	11.27	9.529	9.730	8.542	7.631	6.392	6.776	10.51	20.06	29.67	13.91	3.971	2.298	2.240	2.239	1.950	1.809	3.120	10.82	31.60	78.56	202.7	96.89	3.957	0.638	0.544	0.369	0.515	0.248	0.173	0.343	0.250	0.459	0.385	0.324	0.237	0.262	0.353	0.375	0.343	0.405	0.548	0.463	0.637	0.320	0.604	0.487	0.633	0.685	0.406	0.693
460.0	152.7	 1142	 1165	106.4	50.09	32.70	24.92	27.97	25.77	32.00	39.52	51.53	64.50	76.27	79.39	84.46	78.27	68.02	52.48	38.48	28.91	20.51	17.64	14.43	13.63	11.44	9.752	9.027	8.724	7.906	7.590	6.209	6.100	6.518	10.28	25.24	24.97	7.485	2.559	2.085	1.913	2.029	1.656	1.912	3.321	8.084	19.86	105.1	206.8	27.23	1.493	0.621	0.336	0.265	0.298	0.206	0.373	0.340	0.424	0.456	0.402	0.222	0.253	0.320	0.353	0.316	0.451	0.281	0.541	0.397	0.519	0.606	0.609	0.650	0.508	0.493	0.628
465.0	88.60	574.1	 1573	330.6	44.45	27.82	22.95	25.77	26.71	28.98	35.76	46.41	54.68	66.02	72.81	72.67	66.73	57.00	45.55	34.83	24.63	19.52	15.30	12.87	12.02	9.785	9.367	9.200	8.237	7.697	6.892	6.060	6.056	5.119	6.756	14.21	26.73	15.49	4.059	2.063	2.015	2.083	2.014	1.842	1.626	2.776	5.532	28.31	140.6	163.7	20.26	0.790	0.520	0.323	0.230	0.286	0.278	0.168	0.350	0.345	0.290	0.368	0.305	0.431	0.142	0.274	0.499	0.351	0.393	0.480	0.420	0.324	0.602	0.515	0.538	0.431	0.486
470.0	74.03	188.9	 1121	 1034	104.2	26.81	23.01	21.92	24.41	24.96	30.06	38.07	45.81	53.69	57.60	59.00	54.15	46.72	37.48	28.51	21.26	16.39	13.74	11.70	10.61	9.045	8.609	7.899	7.426	6.990	6.595	5.883	5.463	4.728	5.119	6.658	15.04	21.11	11.75	3.506	1.935	1.797	1.647	1.642	1.406	1.554	2.185	7.240	37.24	105.2	134.2	59.29	3.357	0.462	0.438	0.373	0.343	0.262	0.304	0.250	0.320	0.257	0.224	0.284	0.298	0.297	0.425	0.340	0.343	0.421	0.356	0.309	0.456	0.417	0.432	0.558	0.489
475.0	83.41	71.62	376.0	 1359	506.9	29.13	19.87	16.59	21.47	21.34	27.23	31.51	37.94	42.05	46.36	47.06	43.97	36.99	29.66	23.75	17.84	13.79	11.88	10.32	9.305	8.264	7.038	7.159	6.758	6.702	6.265	5.800	5.272	4.285	4.424	4.801	6.066	13.06	19.15	9.305	2.650	1.677	1.702	1.553	1.495	1.242	1.379	2.372	9.187	24.46	55.87	142.3	31.88	2.725	0.393	0.411	0.352	0.265	0.396	0.286	0.224	0.308	0.227	0.295	0.400	0.386	0.487	0.234	0.307	0.439	0.244	0.206	0.611	0.221	0.426	0.339	0.600
480.0	89.64	52.54	119.3	950.6	 1013	70.02	18.15	16.89	16.49	18.88	24.14	27.70	33.05	34.98	38.97	39.02	37.02	32.74	25.65	19.54	15.94	12.28	10.57	9.399	8.706	7.520	6.979	6.406	6.133	6.214	5.767	5.750	4.991	4.172	3.840	3.766	3.953	6.574	16.11	15.39	4.609	1.960	1.337	1.326	1.111	1.436	1.229	1.180	3.051	6.196	14.13	71.55	134.0	27.66	1.144	0.388	0.378	0.321	0.389	0.289	0.226	0.255	0.250	0.211	0.294	0.323	0.249	0.248	0.436	0.384	0.364	0.111	0.445	0.303	0.299	0.349	0.504
485.0	83.11	49.50	53.29	424.0	 1290	272.7	18.61	15.37	16.31	19.82	22.46	25.72	27.64	31.48	33.78	33.23	32.13	28.85	22.42	17.50	13.63	10.99	9.190	8.608	7.901	6.970	6.462	5.842	5.995	5.778	5.738	5.207	4.409	4.439	3.508	3.358	3.380	3.830	9.357	16.81	9.926	2.980	1.246	1.450	1.131	1.417	1.153	0.957	1.447	1.900	3.846	19.23	93.48	125.3	19.70	0.457	0.373	0.400	0.312	0.274	0.233	0.213	0.357	0.228	0.241	0.211	0.310	0.171	0.228	0.350	0.231	0.262	0.404	0.243	0.281	0.201	0.311
490.0	56.17	73.62	40.13	128.1	827.8	774.6	72.02	14.67	14.21	18.43	19.22	22.28	23.73	25.86	27.59	27.60	26.39	22.96	18.91	14.84	10.98	9.543	7.850	7.392	6.693	6.269	5.999	5.443	5.560	5.164	5.085	4.946	4.250	4.125	3.230	3.064	2.931	2.968	4.371	10.00	14.19	7.971	2.374	1.417	1.225	1.232	1.261	1.004	1.059	1.039	1.431	5.051	24.35	74.09	104.8	48.70	2.897	0.347	0.297	0.310	0.262	0.246	0.325	0.298	0.294	0.284	0.288	0.242	0.267	0.366	0.268	0.316	0.412	0.350	0.300	0.300	0.333
495.0	28.16	72.00	45.23	49.15	260.6	931.0	348.3	16.61	15.17	15.09	17.02	18.91	18.87	21.91	22.09	22.58	19.89	19.16	15.39	11.81	10.15	8.062	7.009	6.698	5.597	5.745	5.344	5.100	5.336	5.394	4.840	4.239	3.998	3.874	3.128	2.871	2.603	2.413	2.997	4.073	9.269	13.48	5.941	1.935	1.177	1.175	1.085	1.088	1.179	0.877	0.786	1.615	6.067	17.47	48.18	119.7	33.55	2.308	0.335	0.287	0.308	0.365	0.217	0.212	0.150	0.296	0.382	0.272	0.307	0.080	0.424	0.198	0.549	0.278	0.224	0.222	0.384
500.0	33.28	52.63	58.16	30.19	75.86	622.5	692.2	48.59	14.12	12.68	15.73	16.30	18.20	19.14	18.38	18.54	17.58	16.53	13.35	10.11	8.447	7.414	6.853	6.076	5.366	5.412	4.836	4.853	4.711	4.892	4.398	4.202	3.676	3.740	3.165	2.915	2.341	2.229	2.295	2.509	4.396	11.53	10.09	3.843	1.375	1.184	0.971	0.937	1.279	0.935	0.683	0.991	1.916	4.442	12.24	60.62	119.7	28.15	0.996	0.325	0.476	0.328	0.260	0.168	0.164	0.225	0.230	0.290	0.261	0.166	0.335	0.172	0.287	0.274	0.247	0.110	0.330
505.0	33.66	36.43	66.33	36.32	34.50	267.5	832.1	194.0	11.68	12.98	13.64	14.63	15.39	16.38	16.83	15.33	15.03	14.19	11.65	8.896	7.817	6.455	5.912	4.876	4.705	5.059	4.297	4.185	4.408	4.219	4.008	3.911	3.339	3.606	2.994	2.564	2.371	2.321	2.234	2.258	2.650	6.799	11.52	6.806	2.103	1.296	0.831	1.042	1.062	0.986	0.720	0.741	0.884	1.368	3.270	16.08	79.31	107.6	19.97	0.654	0.203	0.314	0.125	0.207	0.236	0.070	0.212	0.311	0.137	0.339	0.141	0.185	0.224	0.236	0.314	0.225	0.168
510.0	29.98	23.08	58.79	48.48	19.34	75.27	502.3	513.8	55.96	12.00	12.53	12.80	11.94	13.76	13.90	12.75	12.78	11.26	9.209	7.391	6.186	5.428	5.231	4.638	4.221	4.443	4.022	3.746	3.781	3.660	3.803	3.457	3.192	3.108	2.844	2.356	2.295	2.100	1.801	1.881	1.900	3.010	6.816	9.281	5.490	1.886	0.897	0.755	0.915	0.837	0.740	0.735	0.743	0.759	1.187	4.065	20.67	62.21	83.37	23.55	2.780	0.252	0.374	0.241	0.344	0.215	0.220	0.258	0.220	0.170	0.210	0.243	0.229	0.171	0.227	0.184	0.207
515.0	27.23	23.64	34.61	56.02	26.72	24.50	147.1	561.7	261.2	11.45	12.45	9.485	10.40	10.56	10.26	9.633	10.20	9.056	8.506	6.674	5.245	4.190	4.540	4.318	3.621	3.644	3.592	3.485	3.653	3.334	3.201	3.244	2.919	2.646	2.624	2.246	2.253	1.939	2.085	1.732	1.704	1.911	2.767	6.084	8.109	4.073	1.212	0.911	0.784	0.744	0.788	0.867	0.738	0.526	0.575	1.304	5.055	14.47	33.52	83.95	33.08	2.474	0.429	0.218	0.310	0.240	0.284	0.199	0.149	0.246	0.243	0.275	0.219	0.281	0.286	0.171	0.140
520.0	19.47	19.41	21.33	50.80	36.00	13.44	41.85	361.0	439.5	37.09	10.80	9.137	9.859	9.834	10.10	9.185	8.340	7.146	6.547	5.285	4.588	4.208	4.040	4.452	3.413	3.362	3.323	3.331	3.406	2.968	3.360	2.819	2.755	2.491	2.372	2.187	1.792	1.717	1.942	1.701	1.558	1.716	1.663	3.435	7.845	6.612	2.350	1.039	0.797	0.480	0.600	0.792	0.867	0.576	0.528	0.698	1.470	3.605	8.521	42.47	85.43	25.34	1.097	0.201	0.231	0.275	0.230	0.209	0.298	0.383	0.233	0.258	0.319	0.292	0.261	0.204	0.188
525.0	18.16	16.49	16.61	32.45	44.73	14.81	15.57	151.3	518.5	146.2	10.57	9.722	7.904	9.409	9.106	8.190	7.342	6.228	5.364	4.111	4.093	3.936	3.574	3.401	3.088	2.801	3.248	3.417	3.001	2.733	3.188	2.775	2.497	2.219	2.269	1.987	1.711	1.691	1.521	1.488	1.348	1.251	1.262	1.819	4.862	7.526	4.059	1.494	0.750	0.615	0.595	0.637	0.865	0.725	0.623	0.499	0.690	1.198	2.187	11.12	52.17	75.16	16.45	0.394	0.229	0.233	0.146	0.252	0.432	0.293	0.386	0.267	0.183	0.179	0.126	0.322	0.227
530.0	15.57	14.89	11.13	18.75	40.89	23.81	11.28	44.68	302.3	353.4	44.36	8.287	6.826	7.495	7.689	6.547	5.889	5.703	4.950	4.322	3.475	3.194	3.014	2.705	2.982	2.662	2.689	2.817	2.570	2.531	3.016	2.376	2.183	1.853	1.984	1.878	1.713	1.678	1.447	1.501	1.264	1.155	1.190	1.269	2.101	5.046	6.145	3.261	1.087	0.656	0.510	0.526	0.607	0.661	0.621	0.485	0.419	0.494	0.923	2.825	13.55	40.78	57.83	21.73	2.358	0.188	0.224	0.297	0.281	0.240	0.326	0.317	0.240	0.352	0.227	0.232	0.229
535.0	14.90	19.17	13.11	11.10	26.81	39.69	13.93	14.89	90.67	338.8	196.5	8.772	6.108	6.326	5.685	5.220	5.313	4.015	4.013	3.754	3.359	2.411	3.221	2.406	2.789	2.336	2.864	2.381	2.493	2.288	2.460	2.232	2.303	2.113	1.736	1.623	1.579	1.631	1.395	1.472	1.049	1.032	0.779	1.119	1.113	2.152	4.657	5.282	2.526	0.763	0.413	0.389	0.794	0.592	0.699	0.661	0.492	0.387	0.599	1.030	3.415	9.644	21.86	55.73	30.42	2.049	0.268	0.248	0.260	0.148	0.085	0.241	0.245	0.278	0.264	0.258	0.202
540.0	19.37	19.21	16.74	8.407	14.99	41.41	19.36	7.828	29.59	194.2	317.4	32.83	5.326	4.944	5.680	4.457	4.608	3.697	3.162	3.165	3.000	2.358	2.546	2.367	2.530	1.790	2.269	2.277	2.301	1.917	2.407	1.943	1.870	1.757	1.516	1.363	1.492	1.427	1.366	1.263	1.243	0.908	0.654	0.856	0.975	1.239	2.548	5.067	3.962	1.382	0.423	0.444	0.602	0.563	0.606	0.744	0.680	0.239	0.411	0.512	0.981	2.606	5.420	26.07	60.61	21.63	0.849	0.340	0.284	0.164	0.028	0.405	0.251	0.331	0.219	0.119	0.215
545.0	19.29	17.81	9.886	7.251	8.325	31.10	28.76	10.48	14.71	82.28	317.8	118.9	7.236	5.671	4.053	4.368	3.547	3.760	2.955	2.928	2.633	2.029	2.390	1.932	2.061	1.919	1.959	2.191	1.959	2.101	1.611	1.947	1.806	1.652	1.809	1.417	1.480	1.323	1.233	1.038	1.081	0.829	0.723	0.614	0.757	0.876	1.268	3.401	4.687	2.254	0.747	0.381	0.351	0.387	0.462	0.468	0.688	0.435	0.529	0.299	0.504	0.846	1.518	6.699	34.63	54.01	13.61	0.697	0.255	0.137	0.086	0.370	0.180	0.221	0.118	0.121	0.157
550.0	31.70	22.16	12.48	8.665	7.722	19.33	37.16	22.41	24.00	47.17	190.5	248.9	43.46	6.285	3.920	3.718	3.281	3.413	2.762	2.532	2.204	1.869	1.918	1.827	1.822	1.810	1.864	1.765	1.662	1.813	1.542	1.803	1.526	1.469	1.456	1.330	1.360	1.341	1.175	0.944	0.982	0.920	0.743	0.912	0.727	0.874	0.802	1.612	3.361	3.427	1.893	0.584	0.320	0.436	0.464	0.268	0.449	0.561	0.422	0.301	0.339	0.587	0.764	1.815	8.969	27.92	36.85	19.88	1.911	0.182	0.130	0.171	0.172	0.250	0.161	0.127	0.143
555.0	53.99	28.96	17.05	10.33	12.25	14.99	37.07	52.31	56.15	81.87	127.2	255.3	168.5	11.04	3.866	4.079	2.916	2.582	2.579	1.878	1.841	1.749	1.662	1.694	1.429	1.670	1.498	1.222	1.713	1.675	1.397	1.739	1.377	1.279	1.288	1.206	1.223	1.039	1.090	0.846	0.952	1.032	0.754	0.723	0.679	0.711	0.787	0.974	1.318	3.066	2.998	1.416	0.401	0.370	0.392	0.360	0.369	0.542	0.420	0.596	0.617	0.675	0.682	0.933	2.525	6.835	14.21	39.79	24.47	1.515	0.228	0.190	-0.006	0.222	0.288	0.207	0.206
560.0	75.49	43.88	20.70	14.76	12.77	17.07	38.50	80.60	91.04	132.5	151.4	215.0	257.7	37.54	4.531	3.502	3.302	2.197	2.780	2.001	1.742	1.347	1.794	1.601	1.312	1.913	1.614	1.831	1.266	1.263	1.339	1.294	1.302	1.506	1.384	1.340	1.140	1.055	0.961	1.094	0.872	1.004	0.835	0.723	0.826	0.674	0.575	0.757	0.595	1.934	3.081	2.197	0.655	0.358	0.332	0.433	0.346	0.431	0.649	0.644	0.845	0.638	0.678	0.886	1.226	2.296	4.103	18.05	40.88	15.94	0.911	0.304	0.185	0.260	0.305	0.447	0.191
565.0	106.6	61.80	28.67	15.73	15.60	20.08	46.28	94.04	126.8	171.2	198.4	203.2	254.6	103.8	6.073	3.002	2.239	2.192	2.746	1.809	1.157	1.358	1.520	1.425	1.537	1.511	1.184	1.818	1.122	1.325	1.306	1.066	1.555	1.401	1.482	1.525	1.353	0.919	0.996	0.996	0.752	0.845	1.049	0.819	0.986	0.796	0.697	0.613	0.603	1.187	2.298	2.491	1.021	0.370	0.242	0.344	0.324	0.324	0.643	0.913	1.079	0.730	0.848	1.034	1.293	1.330	1.832	5.352	22.46	34.71	9.266	0.468	0.175	0.252	0.246	0.205	0.324
570.0	122.7	77.29	30.61	18.00	18.06	25.94	50.98	105.4	176.6	233.1	259.3	231.3	193.7	170.8	33.67	2.634	1.991	1.936	1.764	1.368	1.236	1.049	1.614	1.285	1.297	1.216	1.088	1.209	1.024	1.231	1.011	1.103	1.210	1.765	1.605	1.195	1.325	1.071	1.001	1.078	0.843	0.915	1.093	0.898	0.827	0.723	0.706	0.600	0.541	0.583	1.145	1.899	1.829	0.921	0.480	0.361	0.407	0.410	0.574	0.724	1.005	1.079	1.106	1.306	1.473	1.366	1.355	2.119	6.106	17.17	24.79	12.32	1.334	0.268	0.274	0.160	0.166
575.0	151.7	92.14	40.64	15.45	19.24	35.99	61.12	115.9	205.8	289.5	320.6	270.1	155.2	135.9	107.3	4.621	1.373	1.776	2.026	1.291	1.130	1.086	1.314	1.227	1.109	1.186	0.848	1.019	0.896	1.091	0.900	0.775	1.484	1.478	1.547	1.237	1.192	0.956	1.254	1.137	0.861	1.147	0.819	0.886	0.932	0.905	0.721	0.679	0.577	0.397	0.524	0.996	1.705	1.334	0.739	0.516	0.547	0.541	0.641	0.875	0.918	1.415	1.253	1.234	1.473	1.621	1.571	1.536	2.087	4.442	8.705	21.94	14.47	1.186	0.285	0.109	0.346
580.0	166.0	109.1	46.56	23.07	20.22	34.14	65.55	121.7	219.5	313.6	351.7	291.3	154.1	89.21	138.6	26.02	1.507	1.211	1.610	1.274	0.837	0.998	1.109	1.275	1.357	1.045	0.920	0.880	0.682	0.696	0.784	0.971	1.205	1.705	1.661	1.599	1.152	0.835	1.134	1.132	1.060	0.875	1.011	0.952	0.871	0.934	0.508	0.680	0.416	0.354	0.425	0.815	1.228	1.639	1.022	0.685	0.373	0.678	0.657	0.843	0.930	1.338	1.556	1.372	1.601	1.569	1.609	1.618	1.405	1.486	2.341	9.749	22.43	8.742	0.716	0.262	0.098
585.0	183.2	111.8	48.38	26.33	18.97	33.69	69.64	125.3	221.6	324.4	365.8	307.4	160.1	57.98	119.2	74.61	2.656	0.639	1.856	1.603	0.601	1.197	0.802	1.158	0.976	0.869	1.130	0.322	0.668	0.729	1.075	0.936	0.918	1.717	1.905	1.363	0.977	0.917	1.038	1.146	0.845	0.948	1.184	0.920	0.858	0.989	0.741	0.597	0.461	0.316	0.373	0.313	0.783	1.369	1.204	0.738	0.435	0.655	0.610	0.769	1.023	1.415	1.564	1.518	1.922	1.600	1.713	1.351	1.213	0.680	0.776	2.728	11.70	18.47	5.466	0.483	0.107
590.0	189.5	104.5	54.88	27.74	22.14	40.53	71.53	125.2	217.7	322.0	363.3	311.0	160.7	44.89	60.10	109.8	26.19	1.199	1.503	1.032	0.898	0.869	0.892	0.821	0.891	0.854	0.868	0.574	0.744	0.715	0.640	0.947	1.049	1.435	1.669	1.254	1.188	1.151	1.067	1.026	1.111	0.824	1.046	0.986	0.846	0.982	0.703	0.578	0.441	0.386	0.276	0.279	0.439	0.803	1.122	0.981	0.568	0.652	0.733	0.791	0.999	1.221	1.435	1.707	1.877	1.718	1.760	1.465	1.000	0.569	0.459	0.852	3.211	8.864	13.51	7.043	0.908
595.0	179.6	102.3	57.48	27.71	25.29	36.20	67.04	119.7	199.9	304.2	355.1	302.5	153.3	42.81	22.60	73.30	81.00	3.130	1.503	0.799	0.729	1.193	0.790	0.808	0.821	0.968	0.555	0.318	0.677	0.468	0.554	0.526	1.353	1.344	1.346	1.324	1.133	1.016	0.972	0.876	0.990	0.804	1.024	0.778	0.865	0.867	0.697	0.663	0.242	0.275	0.243	0.356	0.404	0.460	0.746	1.093	0.931	0.711	0.718	0.706	0.924	1.252	1.193	1.658	1.939	1.830	1.545	1.607	0.941	0.673	0.577	0.386	0.834	2.142	4.809	12.01	8.086
600.0	168.8	110.1	53.38	24.47	26.41	34.19	63.99	111.1	189.1	273.9	331.6	288.9	145.5	41.90	14.12	36.43	98.88	19.65	1.019	1.356	1.027	0.938	0.790	0.757	0.843	0.544	0.509	0.719	0.606	0.558	0.456	0.706	0.946	1.219	1.573	1.213	1.108	0.977	0.917	0.901	1.028	0.500	0.965	0.818	0.695	0.759	0.681	0.423	0.277	0.398	0.240	0.386	0.316	0.384	0.607	0.917	1.081	0.693	0.731	0.620	1.110	1.225	1.182	1.332	1.714	1.565	1.573	1.353	0.925	0.673	0.506	0.304	0.291	0.785	1.303	5.509	12.34
605.0	155.6	94.23	60.89	25.20	23.06	29.16	56.26	103.4	174.0	248.2	298.7	270.1	141.9	41.83	11.91	15.10	75.35	57.02	1.465	0.839	1.001	0.553	0.776	0.683	0.375	0.547	0.708	0.472	0.495	0.641	0.432	0.516	0.906	1.213	1.338	1.416	1.096	1.031	0.855	0.688	0.862	0.649	0.767	0.581	0.805	0.779	0.656	0.542	0.493	0.350	0.199	0.170	0.243	0.177	0.470	0.675	0.919	0.906	0.854	0.647	0.696	1.049	1.221	1.225	1.580	1.453	1.312	1.417	0.959	0.564	0.329	0.565	0.361	0.249	0.494	1.503	6.418
610.0	127.8	95.66	53.73	23.35	18.54	27.77	47.89	87.05	148.5	213.2	255.4	241.1	128.1	39.11	11.33	6.501	33.72	79.86	20.32	1.053	0.696	0.426	0.659	0.464	0.358	0.625	0.627	0.357	0.381	0.623	0.509	0.549	0.682	1.080	1.135	1.100	0.855	0.794	0.847	0.743	0.756	0.779	0.687	0.736	0.622	0.678	0.497	0.551	0.395	0.360	0.292	0.186	0.276	0.216	0.416	0.444	0.569	0.924	0.804	0.633	0.604	0.942	1.128	1.154	1.434	1.351	1.056	1.225	0.824	0.556	0.325	0.236	0.201	0.334	0.264	0.496	1.668
615.0	129.1	78.61	45.69	28.54	15.60	22.09	42.02	73.02	125.7	186.1	217.6	204.9	117.2	36.18	10.76	4.194	9.333	47.65	63.63	2.955	1.066	0.618	0.476	0.713	0.404	1.049	0.673	0.492	0.412	0.400	0.480	0.413	0.840	1.082	1.395	0.952	0.792	0.626	0.815	0.631	0.478	0.716	0.681	0.628	0.605	0.587	0.483	0.456	0.372	0.389	0.209	0.192	0.309	0.220	0.315	0.189	0.491	0.633	0.842	0.666	0.746	0.768	0.834	1.145	1.212	1.174	1.097	1.074	0.796	0.452	0.422	0.334	0.292	0.154	0.350	0.279	0.771
620.0	114.9	82.03	40.83	17.58	16.65	24.73	35.98	64.33	109.1	164.4	190.9	172.4	106.0	35.33	9.982	3.511	4.084	22.25	76.46	17.51	1.230	0.793	0.567	0.579	0.666	0.585	0.680	0.532	0.459	0.351	0.307	0.738	0.609	1.009	1.115	0.924	0.628	0.443	0.808	0.585	0.476	0.540	0.700	0.490	0.647	0.538	0.407	0.423	0.319	0.322	0.136	0.197	0.252	0.171	0.101	0.259	0.537	0.594	0.764	0.814	0.770	0.647	0.848	0.848	1.024	1.187	0.827	0.910	0.870	0.546	0.396	0.186	0.204	0.301	0.324	0.315	0.417
625.0	96.34	70.13	39.74	18.19	19.37	19.07	35.51	59.54	97.20	144.9	167.1	157.2	94.42	35.81	9.127	3.358	2.542	7.639	53.63	47.27	1.253	0.742	0.523	0.471	0.795	0.674	0.605	0.730	0.569	0.544	0.591	0.582	0.569	0.705	0.847	0.901	0.626	0.441	0.738	0.725	0.559	0.622	0.600	0.446	0.397	0.558	0.421	0.376	0.329	0.314	0.182	0.108	0.371	0.226	0.126	0.146	0.219	0.360	0.658	0.716	0.896	0.673	0.638	0.844	0.867	1.015	0.864	0.854	0.720	0.583	0.469	0.266	0.246	0.279	0.400	0.275	0.181
630.0	82.14	49.19	35.22	18.99	15.36	17.39	28.44	47.71	82.16	115.7	137.3	126.3	76.63	35.28	10.26	3.344	1.695	2.810	21.98	61.21	17.18	0.629	0.438	0.779	0.597	0.455	0.620	0.563	0.469	0.356	0.725	0.477	0.639	0.892	0.697	0.747	0.843	0.407	0.567	0.638	0.565	0.501	0.497	0.403	0.339	0.562	0.402	0.302	0.432	0.297	0.212	0.128	0.232	0.246	0.190	0.208	0.212	0.321	0.432	0.581	0.710	0.562	0.631	0.642	0.740	0.974	0.804	0.711	0.569	0.437	0.449	0.385	0.189	0.180	0.325	0.248	0.219
635.0	72.71	53.73	35.28	12.95	14.81	14.85	20.74	38.83	68.37	97.04	115.0	103.2	60.62	28.39	13.43	3.713	1.555	1.236	5.919	33.51	51.28	2.242	0.625	0.579	0.721	0.471	0.692	0.317	0.354	0.152	0.640	0.747	0.479	0.887	0.645	0.557	0.672	0.572	0.353	0.559	0.631	0.528	0.462	0.454	0.240	0.583	0.499	0.342	0.250	0.274	0.175	0.053	0.159	0.297	0.292	0.354	0.218	0.258	0.311	0.432	0.486	0.720	0.596	0.658	0.790	0.708	0.550	0.606	0.494	0.398	0.393	0.349	0.337	0.241	0.287	0.146	0.240
640.0	67.72	48.36	31.80	14.89	13.63	12.25	15.74	33.76	57.51	81.75	94.06	87.99	50.85	23.65	13.94	3.273	1.390	1.288	2.218	14.20	59.26	14.57	0.856	0.451	0.942	0.639	0.774	0.334	0.444	0.348	0.718	0.604	0.629	0.580	0.618	0.446	0.582	0.477	0.436	0.327	0.462	0.391	0.360	0.619	0.416	0.438	0.362	0.371	0.198	0.179	0.153	0.158	0.262	0.301	0.142	0.178	0.230	0.343	0.383	0.455	0.427	0.643	0.710	0.539	0.697	0.542	0.519	0.380	0.235	0.308	0.310	0.207	0.275	0.206	0.181	0.155	0.166
645.0	53.70	36.69	28.70	11.50	10.21	8.677	16.20	26.49	50.20	71.10	78.88	74.31	44.33	19.30	13.84	5.006	0.919	1.761	1.114	5.292	40.53	38.43	1.034	0.577	0.667	0.667	0.563	0.713	0.421	0.181	0.639	0.685	0.569	0.465	0.518	0.329	0.543	0.445	0.428	0.378	0.403	0.347	0.495	0.595	0.322	0.413	0.255	0.187	0.334	0.344	0.173	0.143	0.236	0.282	0.267	0.238	0.208	0.270	0.295	0.342	0.278	0.460	0.651	0.558	0.462	0.562	0.610	0.666	0.262	0.283	0.239	0.135	0.295	0.088	0.114	0.082	0.092
650.0	47.79	35.22	26.22	13.23	13.31	10.44	13.74	24.38	41.15	58.62	72.69	62.71	35.58	15.76	12.55	7.544	1.129	1.171	0.902	2.038	19.16	52.72	6.156	0.477	0.299	0.739	0.495	0.634	0.372	0.191	0.420	0.768	0.391	0.409	0.523	0.282	0.510	0.365	0.187	0.462	0.437	0.242	0.338	0.468	0.324	0.324	0.320	0.270	0.323	0.277	0.172	0.207	0.129	0.175	0.264	0.184	0.209	0.270	0.258	0.238	0.459	0.294	0.532	0.503	0.413	0.740	0.416	0.450	0.123	0.342	0.138	0.161	0.370	0.181	0.266	0.068	0.195
