Sample:	'1
File name:	Èý²í¿Ú1.6 21.23£¨300±¶£©.FD3
Run date:	'10:11:11, 01/10/2024
Operator:	Administrator
Comment:	'

Instrument
Model:	F-2700 FL Spectrophotometer
Serial number:	23B8-004
ROM Version:	4J14000 07

Instrument parameters
Measurement type:	3-D scan
Data mode:	Fluorescence
EX  Start WL:	220.0 nm
EX  End WL:	600.0 nm
EX Sampling interval:	5.0 nm
EM  Start WL:	230.0 nm
EM  End WL:	650.0 nm
EM Sampling interval:	5.0 nm
Scan speed:	12000 nm/min
EX Slit:	5.0 nm
EM Slit:	5.0 nm
PMT Voltage:	700 V
Response:	Auto 
Corrected spectra:	Off
Contour interval:	50.000

Peak integration
Integration method:	Rectangular
Sensitivity:	1
Threshold:	1.000

Peaks
No.	ApexEX/EM(nm)	Height(Data)
1	225.0/585.0	18.88
2	225.0/605.0	19.53
3	230.0/500.0	255.7
4	235.0/360.0	2091
5	235.0/510.0	193.8
6	240.0/265.0	425.5
7	240.0/525.0	182.3
8	245.0/270.0	422.0
9	245.0/535.0	144.1
10	250.0/275.0	557.8
11	250.0/550.0	122.9
12	255.0/280.0	656.4
13	255.0/560.0	114.0
14	260.0/575.0	101.9
15	265.0/590.0	110.8
16	270.0/600.0	145.2
17	275.0/340.0	6103
18	275.0/620.0	198.6
19	280.0/345.0	6079
20	280.0/625.0	209.0
21	290.0/355.0	5678
22	345.0/395.0	182.0
23	350.0/400.0	194.9
24	355.0/405.0	172.8
25	365.0/420.0	128.7
26	370.0/425.0	108.9
27	380.0/440.0	72.72
28	385.0/445.0	63.70
29	390.0/450.0	47.12
30	395.0/460.0	43.59
31	400.0/345.0	6.565
32	400.0/465.0	37.84
33	405.0/470.0	28.08
34	410.0/480.0	26.06
35	415.0/485.0	22.56
36	420.0/490.0	17.96
37	425.0/500.0	17.24
38	430.0/505.0	15.41
39	435.0/510.0	12.82
40	440.0/520.0	12.24
41	445.0/525.0	11.09
42	455.0/540.0	7.433
43	460.0/545.0	6.094
44	465.0/555.0	4.449
45	470.0/560.0	3.487
46	475.0/360.0	8.812
47	480.0/365.0	8.328
48	480.0/575.0	2.122
49	485.0/265.0	2.452
50	485.0/580.0	1.969
51	490.0/590.0	1.710
52	495.0/270.0	2.174
53	495.0/595.0	1.374
54	505.0/275.0	3.141
55	510.0/280.0	3.590
56	520.0/285.0	3.898
57	540.0/340.0	22.28
58	560.0/340.0	24.56
59	585.0/350.0	24.66

Data points
	220.0	225.0	230.0	235.0	240.0	245.0	250.0	255.0	260.0	265.0	270.0	275.0	280.0	285.0	290.0	295.0	300.0	305.0	310.0	315.0	320.0	325.0	330.0	335.0	340.0	345.0	350.0	355.0	360.0	365.0	370.0	375.0	380.0	385.0	390.0	395.0	400.0	405.0	410.0	415.0	420.0	425.0	430.0	435.0	440.0	445.0	450.0	455.0	460.0	465.0	470.0	475.0	480.0	485.0	490.0	495.0	500.0	505.0	510.0	515.0	520.0	525.0	530.0	535.0	540.0	545.0	550.0	555.0	560.0	565.0	570.0	575.0	580.0	585.0	590.0	595.0	600.0
230.0	46.28	1332	3760	1093	41.18	6.275	4.031	3.802	3.521	4.269	3.432	3.626	3.182	3.017	2.573	2.258	1.699	1.553	1.408	1.158	1.050	0.900	0.610	0.544	0.531	0.510	0.402	0.357	0.310	0.287	0.311	0.278	0.235	0.243	0.266	0.241	0.259	0.266	0.226	0.234	0.471	0.884	0.999	0.501	0.245	0.259	1.514	8.174	14.45	10.02	3.772	0.697	0.179	0.150	0.138	0.138	0.140	0.133	0.117	0.113	0.116	0.126	0.136	0.118	0.116	0.104	0.097	0.117	0.113	0.110	0.114	0.102	0.090	0.091	0.087	0.089	0.083
235.0	160.3	357.8	1929	3276	723.9	54.74	5.955	4.068	5.022	4.952	3.561	3.774	3.375	2.910	2.955	1.790	2.193	1.861	1.667	1.080	1.136	0.951	0.525	0.647	0.442	0.473	0.396	0.310	0.392	0.300	0.317	0.300	0.284	0.245	0.269	0.233	0.277	0.202	0.290	0.239	0.261	0.412	0.760	0.979	0.772	0.446	0.515	2.090	4.910	7.835	11.06	11.68	5.440	1.234	0.208	0.144	0.165	0.127	0.148	0.107	0.105	0.139	0.172	0.135	0.090	0.094	0.096	0.136	0.131	0.108	0.092	0.126	0.067	0.079	0.090	0.098	0.079
240.0	209.6	200.0	532.2	2417	3187	571.7	24.07	5.365	5.478	4.867	4.660	4.043	2.950	2.429	2.527	2.145	2.253	1.861	1.571	1.304	1.123	0.976	0.635	0.581	0.546	0.431	0.381	0.337	0.371	0.349	0.252	0.282	0.307	0.225	0.234	0.236	0.288	0.206	0.242	0.207	0.188	0.250	0.386	0.613	1.141	1.064	0.649	0.731	1.306	2.125	5.232	13.01	15.45	10.47	3.676	0.649	0.188	0.140	0.184	0.152	0.131	0.072	0.120	0.104	0.119	0.122	0.106	0.089	0.119	0.117	0.125	0.095	0.101	0.063	0.105	0.111	0.082
245.0	139.9	261.1	200.2	750.2	2988	3110	414.2	9.936	6.086	5.400	5.536	4.337	4.201	2.961	2.960	2.133	2.343	2.056	1.765	1.296	1.112	0.860	0.557	0.601	0.530	0.494	0.555	0.359	0.337	0.260	0.310	0.252	0.307	0.324	0.181	0.233	0.255	0.209	0.239	0.216	0.174	0.188	0.277	0.331	0.517	1.048	1.318	0.978	0.693	0.630	1.346	4.087	9.039	15.05	15.18	9.457	2.590	0.267	0.138	0.156	0.135	0.101	0.136	0.130	0.118	0.213	0.090	0.127	0.099	0.094	0.100	0.113	0.106	0.067	0.093	0.080	0.083
250.0	47.26	171.8	286.7	280.0	896.6	2593	3483	1319	69.15	8.189	6.348	5.566	4.470	3.796	3.586	2.359	2.245	2.285	1.640	1.313	1.199	0.938	0.730	0.621	0.528	0.491	0.564	0.397	0.356	0.427	0.341	0.297	0.326	0.339	0.234	0.207	0.276	0.219	0.209	0.260	0.233	0.191	0.251	0.211	0.248	0.399	0.687	1.040	1.365	1.118	0.820	1.200	2.249	4.645	8.143	13.18	18.59	13.67	7.686	2.256	0.290	0.163	0.119	0.119	0.106	0.161	0.113	0.113	0.102	0.100	0.107	0.079	0.089	0.055	0.107	0.117	0.104
255.0	17.99	51.60	189.7	388.2	306.2	635.0	2289	5078	1766	70.84	7.839	7.199	5.174	4.368	3.822	3.086	2.656	2.047	2.038	1.545	1.134	0.929	0.681	0.593	0.589	0.641	0.467	0.462	0.443	0.440	0.349	0.345	0.275	0.327	0.271	0.250	0.247	0.246	0.247	0.262	0.276	0.234	0.237	0.233	0.266	0.245	0.281	0.375	0.614	0.948	1.742	1.751	1.056	1.275	2.002	3.241	6.061	11.61	21.57	22.28	11.27	2.396	0.254	0.177	0.132	0.133	0.108	0.108	0.102	0.115	0.093	0.071	0.122	0.115	0.107	0.140	0.116
260.0	14.84	21.26	68.13	311.7	356.2	197.6	646.6	3778	5503	391.5	25.91	8.431	6.660	4.721	4.236	3.697	2.651	2.464	2.257	1.636	1.161	0.949	0.775	0.598	0.622	0.702	0.527	0.441	0.415	0.384	0.406	0.389	0.238	0.344	0.272	0.221	0.263	0.234	0.210	0.230	0.199	0.249	0.246	0.160	0.208	0.196	0.222	0.218	0.272	0.403	0.903	2.152	2.124	1.327	0.775	0.917	1.570	3.063	8.853	19.46	28.07	26.07	11.30	1.044	0.190	0.145	0.174	0.148	0.119	0.171	0.101	0.125	0.112	0.094	0.102	0.125	0.126
265.0	14.85	13.69	25.34	133.0	425.5	271.8	177.0	1178	5238	8475	288.2	13.34	7.789	5.968	5.365	4.457	3.335	2.948	2.472	1.864	1.458	1.149	0.787	0.726	0.739	0.579	0.513	0.430	0.539	0.363	0.452	0.400	0.315	0.259	0.258	0.273	0.272	0.239	0.205	0.189	0.253	0.258	0.239	0.195	0.209	0.214	0.253	0.200	0.214	0.215	0.329	1.008	1.882	2.452	1.526	0.715	0.549	0.885	2.258	5.571	13.98	32.68	42.87	17.63	4.332	0.298	0.181	0.121	0.102	0.119	0.126	0.108	0.126	0.111	0.084	0.101	0.133
270.0	23.44	16.48	15.88	41.36	186.1	422.0	303.4	317.5	1570	8251	4996	1137	53.75	7.534	6.113	4.936	3.631	3.213	2.397	1.805	1.715	1.392	0.805	0.868	0.669	0.587	0.635	0.453	0.457	0.471	0.425	0.413	0.427	0.397	0.366	0.360	0.368	0.378	0.297	0.264	0.268	0.293	0.269	0.256	0.237	0.209	0.237	0.234	0.203	0.204	0.204	0.382	0.681	1.336	1.902	2.174	1.926	0.993	0.805	1.504	3.523	9.277	20.37	22.45	27.46	25.81	14.93	3.034	0.374	0.169	0.136	0.152	0.119	0.099	0.116	0.120	0.120
275.0	35.53	30.94	19.12	21.91	52.52	177.0	557.8	354.6	394.2	2000	3816	8524	1471	39.88	7.520	5.616	4.151	3.886	2.608	2.297	1.894	1.484	1.062	0.852	0.696	0.647	0.684	0.614	0.571	0.510	0.545	0.493	0.534	0.566	0.618	0.467	0.447	0.415	0.429	0.467	0.355	0.414	0.328	0.338	0.316	0.215	0.287	0.245	0.218	0.221	0.173	0.256	0.320	0.470	0.727	1.006	2.576	3.141	2.370	1.021	1.038	2.413	4.873	5.334	8.242	18.87	43.09	36.40	16.02	2.526	0.281	0.179	0.190	0.124	0.163	0.132	0.115
280.0	56.50	42.20	25.20	20.95	25.07	61.68	334.0	656.4	236.8	501.2	1069	6532	7622	226.5	17.30	7.911	5.280	4.337	2.963	2.546	1.834	1.542	1.207	0.842	0.827	0.730	0.904	0.598	0.628	0.617	0.484	0.532	0.507	0.709	0.591	0.587	0.490	0.565	0.496	0.605	0.458	0.446	0.441	0.452	0.407	0.310	0.321	0.338	0.247	0.195	0.207	0.238	0.238	0.350	0.386	0.351	1.119	2.153	3.590	3.168	1.464	0.916	1.375	1.509	2.141	4.866	14.81	28.07	40.36	31.79	11.24	1.152	0.244	0.147	0.157	0.185	0.117
285.0	72.86	63.57	41.52	27.24	22.68	33.07	122.2	571.0	462.0	216.8	301.7	1960	7863	5897	163.2	12.30	6.467	5.511	3.966	2.873	2.241	1.569	1.193	0.879	0.867	0.762	0.880	0.657	0.749	0.542	0.510	0.511	0.508	0.725	0.737	0.790	0.724	0.597	0.460	0.585	0.483	0.454	0.410	0.541	0.429	0.459	0.442	0.393	0.373	0.268	0.267	0.240	0.221	0.268	0.232	0.253	0.498	0.766	1.716	3.416	3.898	2.041	0.953	0.721	0.779	1.379	3.714	7.536	17.65	36.36	42.36	24.11	5.569	0.469	0.199	0.221	0.209
290.0	106.3	100.5	72.03	50.26	48.12	57.75	102.0	276.2	651.5	657.8	277.8	625.5	2407	5931	6241	666.6	37.18	7.819	5.263	3.736	2.649	2.186	1.445	1.147	0.904	0.887	0.889	0.874	0.678	0.748	0.533	0.693	0.668	0.834	0.873	1.029	0.906	0.741	0.599	0.714	0.645	0.712	0.628	0.627	0.612	0.484	0.515	0.551	0.465	0.312	0.349	0.298	0.278	0.354	0.325	0.380	0.522	0.647	0.903	1.462	2.571	3.591	3.812	2.802	1.603	1.206	1.590	2.577	4.940	9.946	17.96	26.82	30.58	28.79	16.43	4.778	0.695
295.0	169.5	156.0	120.6	122.4	122.6	165.3	250.8	384.9	567.0	1156	1202	805.0	1081	1764	4596	8774	919.1	32.09	7.533	4.974	3.757	2.661	1.838	1.371	1.167	1.314	1.018	0.860	0.767	0.789	0.618	0.813	0.771	1.008	1.152	1.187	1.215	1.293	1.182	1.004	1.019	1.068	0.798	0.812	0.717	0.880	0.643	0.644	0.555	0.508	0.486	0.528	0.620	0.659	0.684	0.784	1.095	1.331	1.482	1.656	2.354	2.847	3.743	5.797	6.388	4.525	3.057	3.241	3.890	4.369	5.898	7.543	9.333	17.41	34.36	40.82	23.40
300.0	231.8	192.2	162.4	175.0	199.6	291.7	443.8	576.8	862.5	1283	1965	1528	1167	1051	1682	7005	7041	137.7	13.82	6.499	4.346	3.546	2.154	1.858	1.341	1.220	1.170	0.954	0.774	0.842	0.726	0.690	0.988	1.270	1.645	1.527	1.480	1.450	1.481	1.446	1.351	1.323	1.142	1.117	0.823	0.953	0.833	0.703	0.795	0.628	0.672	0.775	0.916	1.015	1.095	1.330	1.807	2.031	2.521	2.954	3.502	3.994	4.463	5.138	7.140	8.816	7.137	5.236	5.043	4.757	4.425	4.376	4.493	6.415	11.80	25.57	43.43
305.0	305.9	244.3	208.4	227.0	312.0	473.8	658.1	1015	1362	1790	2376	2581	1862	1296	1209	2314	7354	5348	106.6	8.983	5.362	3.998	2.902	2.151	1.629	1.406	1.152	1.121	0.777	0.959	0.770	0.901	1.066	1.633	1.936	2.135	1.884	2.126	2.079	1.864	1.986	1.688	1.553	1.233	1.156	0.970	1.026	1.053	1.018	0.801	0.875	1.079	1.236	1.557	1.766	2.167	2.840	3.364	4.258	5.002	5.834	6.039	6.854	7.194	8.413	9.432	10.41	10.75	8.875	6.744	5.766	5.031	4.857	5.384	5.182	7.454	16.23
310.0	411.5	312.4	292.0	332.8	484.0	765.9	1142	1685	2253	2862	3305	3630	3382	2154	1666	1047	2187	5146	6258	458.5	26.80	5.953	3.881	2.608	2.266	1.902	1.532	1.437	1.113	1.167	0.930	1.082	1.335	2.172	2.551	3.019	3.074	3.131	2.966	2.798	2.903	2.506	2.268	1.752	1.562	1.383	1.175	1.269	1.299	1.172	1.288	1.634	1.906	2.355	2.805	3.497	4.424	5.502	6.405	7.734	8.935	9.736	10.87	11.85	12.81	12.69	12.81	14.34	14.90	13.54	10.29	8.028	7.234	7.483	5.506	4.202	4.729
315.0	528.9	410.6	378.3	446.0	636.1	992.2	1523	2192	2953	3731	4180	4267	4058	3183	2221	930.0	657.4	1264	4337	6418	690.5	25.89	6.089	3.927	2.796	2.314	1.763	1.590	1.265	1.403	1.184	1.114	1.604	2.572	3.253	3.572	3.956	3.653	3.815	3.617	3.647	3.247	2.752	2.333	1.848	1.765	1.499	1.413	1.389	1.448	1.501	2.189	2.505	3.065	3.625	4.772	5.611	7.167	8.277	9.867	11.23	12.69	14.70	15.76	16.16	16.00	15.75	16.02	16.82	16.23	14.13	12.33	11.00	9.660	6.963	3.736	2.510
320.0	683.4	547.7	499.4	544.3	758.6	1170	1800	2558	3452	4366	4882	4946	4500	3667	2918	1104	404.2	405.1	1200	4824	6128	552.2	13.94	5.962	3.461	2.597	2.185	1.701	1.426	1.223	1.297	1.197	1.930	2.822	3.890	4.371	4.702	4.342	4.278	4.357	4.357	3.812	3.476	2.790	2.198	2.209	2.167	2.089	1.956	1.767	1.904	2.520	2.975	3.783	4.201	5.412	7.379	8.045	9.775	11.26	13.50	14.58	15.81	17.91	19.38	19.13	18.52	18.33	18.89	17.57	14.67	14.21	14.36	12.85	8.565	4.635	2.657
325.0	787.1	740.8	672.3	678.5	898.1	1328	1970	2833	3795	4772	5412	5485	5001	3874	3498	1474	555.1	397.7	493.6	1530	6732	5153	85.84	10.27	5.512	3.578	2.833	2.039	1.811	1.471	1.394	1.343	2.333	3.209	4.520	4.801	5.322	4.871	5.095	4.474	5.012	4.480	3.875	3.168	2.915	2.735	2.450	2.854	2.484	2.214	2.330	3.123	3.727	4.192	4.927	6.020	7.361	8.897	10.59	12.66	14.85	15.80	17.83	20.52	21.55	20.60	20.03	20.44	21.08	19.42	15.52	14.49	15.77	16.32	11.55	6.629	3.729
330.0	879.4	885.0	918.7	958.9	1144	1463	2018	2883	3878	4894	5588	5794	5424	4271	3892	2386	1333	895.9	756.6	813.0	2207	5052	4342	376.8	25.38	5.270	3.760	2.541	2.240	1.915	1.844	1.641	2.387	3.498	4.717	5.540	5.693	5.545	5.260	5.064	5.153	4.588	4.077	3.508	3.290	3.244	3.111	3.424	3.429	3.189	3.343	4.329	4.523	5.054	5.697	6.429	8.028	9.129	11.03	12.86	14.91	16.60	18.75	20.39	21.79	21.40	20.83	22.14	22.68	20.92	17.63	16.44	17.41	17.22	14.43	10.80	8.346
335.0	982.7	1146	1225	1311	1439	1616	2034	2810	3817	4877	5691	6035	5849	4895	4520	3074	2423	1837	1391	1019	1076	1491	2996	5482	596.2	24.34	5.558	3.515	2.772	2.491	2.124	2.019	2.783	4.009	5.328	5.636	5.964	6.144	5.608	5.452	5.145	4.613	4.516	3.840	3.711	3.993	3.869	4.335	4.690	4.144	4.761	5.828	5.541	5.926	6.330	6.937	7.839	9.066	10.79	12.94	15.19	16.60	18.45	20.43	21.63	21.94	21.80	22.96	23.97	21.97	20.53	18.97	20.31	19.94	16.09	13.73	12.36
340.0	1059	1304	1465	1523	1674	1720	1993	2727	3683	4729	5620	6103	6042	5305	4987	3616	2985	2653	1948	1397	1008	764.0	930.3	4163	4938	477.1	12.69	4.338	3.056	2.780	2.438	2.363	3.157	4.325	5.749	5.742	6.400	5.770	5.733	5.521	5.100	4.603	4.473	4.021	4.014	4.074	4.542	4.905	5.439	5.167	5.057	6.991	6.851	6.989	7.047	7.278	8.020	8.623	10.17	12.31	14.63	16.00	18.06	21.18	22.28	21.21	22.17	22.93	24.56	23.62	22.00	20.76	21.37	22.44	19.09	16.08	14.39
345.0	1085	1367	1643	1769	1831	1784	1910	2524	3465	4454	5339	5928	6079	5513	5326	4126	3441	3231	2553	1770	1192	702.5	414.8	1237	4965	4312	77.42	6.390	3.945	3.467	2.824	2.607	3.074	4.381	5.476	6.295	6.565	6.177	6.003	5.541	5.049	4.483	4.382	4.044	4.111	4.362	4.785	5.623	5.868	5.873	5.845	7.680	7.667	7.483	7.286	7.253	7.579	7.950	9.485	11.27	13.57	14.77	17.11	18.93	20.54	20.87	21.22	22.54	24.19	23.31	21.84	21.69	22.06	23.37	20.30	18.30	16.93
350.0	1055	1411	1759	1984	1958	1780	1723	2212	3016	3946	4855	5550	5887	5625	5601	4685	4043	3675	3158	2322	1481	823.9	351.4	354.7	1435	3909	4512	1114	21.49	4.583	3.403	2.947	3.510	4.655	5.769	6.125	6.417	6.158	6.025	5.292	5.012	4.272	3.973	3.864	3.841	4.475	4.779	5.676	6.155	6.304	6.553	8.071	8.205	7.953	7.502	6.768	7.185	7.321	8.142	9.966	11.49	13.20	15.31	17.16	18.20	19.09	19.72	21.15	23.00	22.86	21.82	21.97	23.02	24.66	22.20	20.26	19.93
355.0	1013	1411	1857	2059	2032	1746	1519	1928	2584	3461	4322	5068	5576	5550	5678	5022	4462	4022	3379	2690	1801	952.7	368.6	167.3	352.6	922.3	2926	4992	541.8	22.83	4.581	3.505	3.754	4.622	6.122	6.121	6.525	5.957	5.703	4.919	4.319	4.110	3.768	3.565	3.945	4.375	4.877	6.015	6.463	6.635	6.717	8.747	8.074	8.044	7.493	6.531	7.026	6.357	7.475	8.442	9.838	11.51	13.33	15.36	16.09	17.30	17.72	18.88	21.29	21.88	21.23	21.85	23.57	24.05	23.60	22.04	21.20
360.0	962.3	1379	1849	2091	2058	1706	1404	1685	2261	3049	3925	4701	5230	5376	5611	5054	4614	4164	3465	2712	1981	1060	386.8	131.0	113.6	224.7	764.7	3641	4335	464.0	10.57	4.557	4.332	4.908	6.239	5.881	6.326	5.967	5.159	4.794	4.039	3.540	3.559	3.638	3.766	4.147	4.941	5.815	6.388	6.480	7.064	8.812	8.088	7.900	7.530	6.207	5.779	5.823	6.379	7.682	8.603	9.895	11.60	13.07	14.86	15.64	16.57	17.47	19.74	20.13	21.03	21.34	23.00	23.93	22.89	22.45	21.98
365.0	897.2	1306	1763	2078	2013	1617	1258	1489	2014	2723	3542	4286	4907	5127	5407	5010	4628	4208	3500	2675	1978	1184	418.5	125.9	62.91	70.47	186.0	1039	4144	4140	71.19	6.313	4.824	5.653	5.809	5.959	5.713	5.750	5.013	4.559	3.824	3.538	3.460	3.135	3.629	4.049	4.673	5.810	6.010	6.234	7.176	8.250	8.328	7.838	7.054	5.892	5.488	5.574	5.680	6.761	7.689	8.783	10.48	11.53	13.32	14.42	14.82	16.33	18.30	19.30	19.76	20.42	21.92	23.60	22.49	21.71	21.83
370.0	847.1	1229	1687	1944	1896	1499	1105	1251	1683	2300	3041	3748	4386	4694	5001	4756	4463	4056	3413	2589	1827	1159	534.3	158.2	56.26	39.71	58.17	245.3	1174	3641	3786	1189	23.63	6.058	5.803	5.637	5.614	5.213	4.704	4.189	3.792	3.134	3.038	2.859	3.317	3.784	4.218	5.372	5.856	5.876	6.499	7.850	8.161	7.528	6.652	5.366	4.880	4.808	4.958	5.891	6.650	7.314	8.958	9.894	11.44	12.22	12.99	14.62	16.33	17.45	18.14	18.51	20.46	21.51	21.11	21.13	21.55
375.0	768.1	1118	1549	1819	1745	1340	966.4	1035	1412	1909	2571	3210	3839	4170	4507	4349	4113	3772	3170	2412	1689	1007	536.2	263.0	75.24	37.59	33.16	69.74	272.9	849.9	2345	5088	504.4	24.37	5.959	5.980	5.447	5.034	4.319	4.066	3.527	2.782	2.831	2.614	3.015	3.521	3.842	4.721	5.255	5.360	6.102	7.476	7.481	6.693	5.927	4.877	4.398	3.905	4.152	4.817	5.309	5.811	7.668	8.394	9.612	10.62	11.10	12.09	14.11	15.01	16.04	16.51	18.09	19.36	19.15	18.98	19.48
380.0	676.7	1029	1412	1676	1593	1223	869.9	898.1	1226	1661	2236	2839	3404	3774	4076	3984	3798	3482	2934	2236	1566	915.0	452.1	305.7	135.8	46.62	30.87	32.78	73.51	201.5	607.5	3469	4091	397.3	12.09	5.820	5.095	4.969	4.278	3.460	3.192	2.814	2.581	2.357	2.581	3.199	3.558	4.319	4.859	5.375	5.630	6.939	6.720	6.196	5.590	4.652	3.666	3.546	3.545	4.464	4.535	5.148	6.594	7.282	8.015	9.017	9.741	11.13	12.41	13.94	14.29	14.98	15.93	17.41	17.04	17.25	18.06
385.0	648.8	916.7	1308	1531	1488	1135	787.4	812.9	1065	1442	1968	2503	3073	3400	3685	3634	3471	3188	2691	2060	1451	852.2	392.7	254.3	211.6	77.73	36.93	28.91	33.28	58.13	147.3	970.0	3823	3405	59.23	7.432	5.911	4.848	3.857	3.425	3.081	2.492	2.379	2.167	2.660	3.087	3.400	3.946	4.882	5.000	4.793	6.199	6.133	5.582	5.245	3.961	3.536	3.263	3.065	3.668	4.022	4.585	5.557	6.170	6.951	8.109	8.658	9.548	10.46	12.26	12.73	13.63	14.75	15.71	15.69	16.20	16.72
390.0	568.6	828.0	1167	1333	1320	1023	706.5	716.1	909.2	1210	1641	2125	2601	2936	3187	3179	3040	2786	2353	1819	1288	777.9	362.9	193.6	196.6	171.1	68.96	37.11	29.58	29.99	45.09	228.0	1058	2838	2835	967.3	20.74	5.551	4.027	3.300	2.912	2.489	2.349	2.212	2.574	2.906	3.278	3.919	4.214	4.394	4.473	5.747	5.551	5.194	4.687	3.699	3.157	3.061	2.912	3.260	3.770	4.191	4.718	5.129	5.714	6.741	7.248	8.308	9.233	10.09	10.93	12.04	12.87	13.65	13.82	14.08	14.74
395.0	516.9	751.0	1023	1194	1158	903.5	646.4	652.5	784.7	1020	1364	1774	2198	2497	2727	2724	2601	2385	2012	1569	1130	698.0	349.4	189.1	145.7	182.0	162.6	65.13	35.81	28.03	24.81	62.22	244.6	662.4	1726	3880	413.4	23.03	4.619	3.427	2.884	2.425	2.318	1.993	2.581	2.819	2.894	3.547	3.544	3.857	4.070	4.812	4.808	4.539	4.182	3.287	2.955	2.926	2.821	2.994	3.285	3.725	3.985	4.561	4.912	5.285	6.080	7.105	7.790	8.351	9.275	10.12	10.50	11.43	12.03	11.85	12.95
400.0	482.2	706.9	913.9	1070	1036	826.4	601.3	616.6	715.7	896.4	1185	1547	1909	2194	2394	2422	2311	2112	1779	1399	1017	641.1	341.0	194.7	141.7	146.1	194.9	120.9	47.11	30.08	23.77	26.53	63.93	156.0	447.6	2554	3311	355.2	10.52	3.386	2.832	2.433	2.390	2.138	2.098	2.499	2.666	3.093	3.590	3.371	3.934	4.335	4.511	4.109	3.825	3.057	2.892	2.810	2.617	2.925	3.117	3.492	3.435	4.138	4.161	4.662	5.213	6.289	6.957	7.474	8.241	9.082	9.389	10.35	10.39	10.83	11.43
405.0	451.2	675.7	857.7	976.4	954.4	784.2	602.0	594.4	672.6	818.7	1053	1383	1688	1953	2129	2165	2068	1858	1583	1244	916.5	603.1	335.6	205.4	153.8	129.7	161.5	172.8	76.62	35.50	25.65	19.88	25.30	42.86	107.5	704.8	2987	3096	52.69	4.966	3.076	2.719	2.464	1.960	2.240	2.350	2.627	3.064	3.292	3.140	3.495	4.102	4.163	3.857	3.403	2.843	2.905	2.640	2.527	2.819	2.982	3.087	3.192	3.526	4.148	4.297	4.729	5.505	6.426	6.718	7.352	7.953	8.418	9.159	9.381	9.646	10.22
410.0	437.5	607.8	773.7	880.6	865.5	732.2	574.6	575.7	628.4	733.1	911.6	1188	1465	1686	1835	1858	1779	1577	1343	1066	805.2	548.3	330.0	220.6	171.1	139.1	127.6	151.3	138.5	61.59	29.90	19.53	16.67	18.02	30.86	164.1	821.9	2631	2298	666.9	16.90	3.175	2.599	2.226	2.247	2.402	2.555	2.803	2.888	2.882	2.953	3.820	3.716	3.366	3.407	2.726	2.772	2.632	2.556	2.745	2.780	2.856	2.976	3.089	3.541	3.861	4.064	4.675	5.172	5.808	6.419	6.696	7.419	7.884	7.784	8.568	8.706
415.0	439.6	556.8	698.3	789.3	770.9	671.9	560.8	568.1	586.9	659.4	794.4	1021	1252	1454	1573	1584	1513	1322	1118	901.3	701.2	498.0	324.2	232.2	186.9	153.0	124.3	110.7	129.9	119.3	47.25	21.54	15.03	12.17	14.24	42.38	188.6	612.2	1373	2574	371.1	17.31	3.083	2.301	2.272	2.253	2.333	2.799	3.004	2.488	2.731	3.467	3.310	3.188	3.077	2.943	2.607	2.474	2.533	2.627	2.725	2.568	2.795	2.890	3.017	3.597	3.568	3.896	4.549	4.889	5.468	5.952	6.591	6.720	6.745	7.332	7.193
420.0	410.1	522.5	647.3	726.1	723.9	638.4	558.6	564.7	565.8	606.0	709.2	913.0	1108	1297	1390	1410	1328	1154	969.5	791.5	631.6	459.8	318.5	237.1	196.3	159.5	124.9	97.67	95.98	128.7	77.65	27.08	15.33	11.00	10.10	15.55	47.10	142.2	355.9	1716	2630	306.0	9.400	2.376	2.577	2.817	2.420	2.580	2.964	2.681	2.623	3.278	3.176	3.026	2.905	2.664	2.467	2.567	2.448	2.558	2.577	2.561	2.620	2.485	2.835	3.130	3.029	3.654	4.090	4.407	4.873	4.791	5.739	6.190	6.087	6.328	6.585
425.0	392.9	491.4	611.3	663.6	668.8	616.6	526.7	548.5	550.1	570.0	653.3	825.6	1007	1170	1253	1261	1192	1014	848.6	710.9	572.7	433.1	310.4	239.0	202.1	162.7	128.3	94.72	78.00	96.90	108.9	47.12	16.95	11.10	9.089	9.344	15.79	37.08	84.21	478.3	2242	2114	49.78	4.046	2.704	2.801	2.440	2.669	2.618	2.471	2.528	3.285	2.921	3.025	2.752	2.694	2.358	2.651	2.406	2.478	2.531	2.399	2.441	2.224	2.518	2.495	2.951	3.014	3.550	4.020	4.287	4.669	5.333	5.593	5.453	5.992	5.764
430.0	654.6	473.6	560.8	606.9	627.6	582.1	518.9	537.5	529.2	528.6	588.6	730.0	893.2	1042	1098	1112	1048	870.4	732.1	612.7	502.1	392.3	297.6	239.6	201.3	164.7	129.8	95.94	70.35	63.23	83.29	79.66	34.67	13.03	8.876	7.481	9.019	13.38	22.74	110.9	615.6	1649	2123	626.6	16.58	3.158	2.530	2.552	2.451	2.353	2.428	2.772	2.823	2.697	2.601	2.539	2.513	2.460	2.271	2.550	2.601	2.325	2.355	2.212	2.405	2.421	2.578	2.883	3.088	3.586	3.800	4.302	4.556	4.614	4.877	5.191	5.218
435.0	1524	495.7	527.5	582.0	584.0	553.7	514.6	516.2	512.7	476.1	530.6	652.3	798.3	915.9	966.5	990.4	915.7	741.2	620.5	527.2	442.4	361.0	282.7	235.4	199.0	164.7	128.0	94.42	68.13	51.16	48.23	70.27	69.29	24.43	9.360	7.467	7.235	8.357	9.447	28.13	140.5	383.1	1257	2413	348.0	21.22	2.967	2.681	2.473	2.381	2.245	2.626	2.554	2.720	2.281	2.288	2.552	2.438	2.383	2.658	2.369	2.331	2.246	2.091	2.061	2.062	2.341	2.639	2.971	2.953	3.587	3.963	4.295	4.234	4.360	4.563	4.662
440.0	2206	685.3	513.9	565.6	558.1	524.4	507.9	505.1	492.4	449.0	492.6	592.3	733.6	838.0	878.1	893.7	824.1	659.2	548.0	469.2	402.1	333.8	269.1	226.9	195.4	161.0	124.6	91.57	68.09	48.08	37.14	45.29	72.72	46.58	12.95	7.328	6.642	6.579	6.478	9.815	34.58	88.95	324.3	1591	2432	307.9	10.60	3.097	2.531	2.210	2.236	2.660	2.397	2.595	2.484	2.277	2.266	2.312	2.475	2.430	2.379	2.170	2.192	2.092	2.016	1.889	2.418	2.426	2.780	2.881	3.519	3.586	3.600	3.678	3.964	4.062	4.378
445.0	2284	1287	491.8	523.3	517.5	510.9	486.9	475.6	464.4	420.8	452.6	538.4	666.9	758.4	802.1	813.0	746.7	583.9	487.5	418.0	367.8	310.3	255.1	219.6	190.9	154.8	120.9	90.27	65.78	46.50	33.21	28.98	51.86	63.70	25.95	7.929	6.020	6.016	5.516	6.071	10.76	23.11	76.19	442.1	2073	2358	214.2	5.208	2.975	2.208	2.198	2.700	2.381	2.371	2.401	2.311	2.182	2.203	2.445	2.259	2.278	2.155	2.052	2.007	1.725	2.049	2.143	2.298	2.496	2.628	3.026	3.207	3.327	3.248	3.759	3.672	3.880
450.0	1282	2128	725.3	472.0	479.9	466.0	450.8	451.6	429.4	386.1	399.4	478.4	582.9	672.5	699.5	708.4	646.7	499.9	415.1	360.3	320.9	277.0	234.9	203.4	178.2	145.6	113.7	83.75	59.63	42.88	30.36	23.17	26.65	46.83	47.12	20.22	7.328	5.551	4.686	4.793	5.719	7.788	19.86	102.0	568.1	1735	1955	620.0	14.49	2.701	2.439	2.541	2.438	2.327	2.284	2.284	2.096	2.143	2.151	1.975	2.240	2.057	1.811	1.801	1.534	1.669	1.841	1.904	2.178	2.324	2.547	2.848	2.954	2.855	3.034	3.156	3.598
455.0	521.9	1949	1397	450.1	435.2	422.2	413.2	407.5	389.0	345.2	349.9	420.0	505.1	584.1	609.0	608.2	548.9	417.5	345.5	302.8	275.4	243.9	209.0	184.7	161.2	135.3	104.7	76.26	54.56	38.66	27.22	19.77	17.50	21.61	39.80	41.00	14.32	5.778	4.371	3.922	4.148	4.617	6.919	25.21	129.6	400.7	1010	2220	282.6	16.12	2.711	2.380	2.289	2.278	1.773	2.152	2.046	1.943	1.919	1.970	2.031	2.008	1.723	1.497	1.394	1.347	1.633	1.658	1.948	2.112	2.429	2.705	2.657	2.514	2.937	2.789	2.901
460.0	299.5	1162	2344	599.2	388.6	384.6	383.5	379.0	353.0	307.9	316.2	377.1	451.1	519.8	536.6	544.3	481.6	363.3	299.6	265.9	243.4	215.3	190.9	170.0	146.1	122.8	95.08	68.77	50.52	35.65	25.01	18.21	14.74	13.55	22.38	43.59	28.86	8.179	4.075	3.509	3.477	4.059	4.458	7.836	31.54	92.79	252.2	1374	1957	226.0	10.25	2.929	2.220	2.150	1.909	2.127	1.927	1.780	1.776	1.837	1.653	1.749	1.632	1.502	1.252	1.355	1.454	1.584	1.642	1.858	2.124	2.388	2.340	2.482	2.555	2.527	2.531
465.0	259.3	575.2	2303	1016	360.4	345.0	332.4	344.3	321.6	277.2	282.3	338.7	401.3	463.3	482.8	483.4	430.9	322.9	262.6	234.3	215.4	195.1	173.5	156.3	136.4	111.9	85.74	63.18	45.59	32.48	23.05	16.89	12.88	11.28	12.68	29.61	37.84	16.09	4.927	3.385	3.276	3.311	4.110	4.061	9.209	23.40	59.41	372.3	1650	1620	192.7	4.898	2.295	2.447	1.737	2.014	1.933	1.647	1.919	1.771	1.765	1.656	1.379	1.304	1.261	1.221	1.323	1.476	1.629	1.631	2.057	2.124	2.256	2.197	2.360	2.167	2.312
470.0	262.4	329.2	1251	2058	525.7	306.4	302.6	304.1	284.1	246.7	241.3	289.8	341.0	392.9	405.5	408.6	357.9	266.1	218.7	196.0	180.1	166.6	150.7	135.3	117.9	97.03	75.17	54.48	39.56	29.27	20.89	15.23	11.95	9.384	8.679	13.87	27.49	28.08	12.01	3.922	3.052	2.842	3.189	3.427	4.335	7.396	15.72	85.96	446.9	1174	1466	487.3	14.55	2.541	1.987	1.958	1.875	1.581	1.591	1.541	1.576	1.355	1.317	1.239	1.144	1.124	1.113	1.212	1.288	1.332	1.523	1.833	1.974	1.785	1.845	1.882	1.998
475.0	270.8	257.2	495.5	1935	1264	279.7	258.5	267.2	238.8	214.5	206.1	244.5	282.0	329.9	334.2	339.4	299.8	218.0	175.9	160.1	150.5	139.7	126.7	117.1	101.5	82.93	65.08	47.42	35.37	24.93	18.07	13.51	10.76	8.636	7.205	7.803	12.18	23.65	24.01	8.346	3.235	2.632	2.591	2.783	3.562	3.737	5.310	21.00	101.8	268.7	679.5	1478	279.5	17.89	2.055	2.041	1.860	1.735	1.434	1.316	1.376	1.386	1.223	1.045	0.975	0.879	0.889	0.974	1.141	1.176	1.343	1.458	1.599	1.500	1.454	1.762	1.643
480.0	270.1	255.0	276.9	1125	1930	396.1	238.4	236.3	211.1	190.7	183.6	216.8	250.2	287.7	293.4	295.9	262.3	187.9	152.3	142.9	132.1	124.6	112.6	104.0	92.10	75.47	57.43	41.61	30.97	22.60	16.21	12.48	9.570	7.489	6.548	5.998	6.742	14.18	26.06	16.38	5.076	2.495	2.190	2.441	2.822	3.163	3.129	6.497	24.76	61.86	165.7	832.8	1306	254.1	9.656	2.159	1.806	1.532	1.407	1.397	1.279	1.180	1.139	1.006	0.801	0.983	0.886	0.862	1.190	1.179	1.196	1.311	1.435	1.373	1.335	1.362	1.618
485.0	230.6	260.8	224.7	520.2	1982	719.6	210.4	211.9	199.6	166.9	161.0	191.5	225.2	256.0	263.4	268.7	229.7	165.8	134.1	125.0	117.7	110.8	99.99	93.52	82.41	68.64	50.77	37.35	28.37	19.77	14.85	11.11	8.966	7.468	6.301	5.565	5.252	7.434	17.66	22.56	9.184	3.101	2.340	2.147	2.330	3.030	2.724	3.269	7.093	15.73	38.93	220.7	982.7	1258	194.8	4.536	1.935	1.534	1.401	1.384	1.251	1.101	0.974	0.939	0.823	0.953	0.935	0.833	0.985	1.126	1.209	1.443	1.164	1.217	1.126	1.139	1.313
490.0	160.1	269.2	212.3	270.5	1090	1652	349.7	185.6	171.9	144.8	139.2	163.2	195.4	223.3	227.9	227.7	194.8	142.0	113.9	105.8	99.44	94.67	86.69	80.89	71.91	59.11	43.88	33.24	24.45	17.79	13.47	10.47	8.499	6.548	5.636	5.030	4.695	5.086	8.467	17.23	17.96	7.873	2.645	2.120	2.190	2.322	2.575	2.483	3.056	4.887	10.25	51.17	255.8	772.4	1131	533.6	17.70	1.870	1.431	1.275	1.244	1.106	0.957	0.832	0.777	0.844	0.823	0.754	0.804	0.959	1.042	1.114	0.971	1.073	0.983	1.166	1.160
495.0	132.1	221.3	237.9	180.8	394.1	1625	1005	171.2	142.7	123.0	121.7	135.6	161.9	188.2	190.4	192.0	163.1	117.7	95.08	89.21	85.21	79.87	74.70	66.67	60.53	49.32	38.83	28.20	21.05	15.87	11.89	9.904	7.381	6.443	5.132	4.770	4.121	3.870	4.500	7.590	16.23	15.81	5.809	2.155	2.039	1.898	2.064	2.609	2.445	2.381	3.556	12.89	58.52	176.0	512.5	1494	330.1	23.41	1.591	1.241	1.236	1.015	0.746	0.958	0.753	0.754	0.669	0.726	0.899	0.816	0.947	0.848	0.861	0.754	0.997	1.038	1.060
500.0	96.00	162.4	255.7	168.1	203.4	951.9	1677	262.0	125.9	109.1	105.9	121.1	144.0	164.1	166.6	163.7	140.7	102.1	80.20	75.14	72.42	67.65	62.94	58.00	53.24	42.72	33.63	24.85	18.38	13.86	10.39	8.756	6.621	5.906	4.540	4.384	3.768	3.675	3.738	3.930	9.657	17.24	11.34	3.430	2.006	1.787	1.627	2.030	2.422	2.042	1.946	4.217	14.30	40.65	123.0	760.4	1683	301.7	13.35	1.474	1.079	0.965	0.712	0.782	0.664	0.708	0.625	0.628	0.809	0.720	0.830	0.829	0.878	0.716	0.784	0.903	0.903
505.0	87.08	117.4	217.5	168.3	146.2	405.1	1830	534.3	111.9	97.59	94.20	104.4	127.5	143.8	140.7	141.1	123.1	87.21	70.85	65.18	63.89	60.12	56.40	52.05	47.63	37.76	30.54	21.69	16.57	12.52	9.609	7.778	6.381	5.196	4.531	4.128	3.726	3.523	3.080	2.704	5.104	12.74	15.41	6.892	2.225	1.766	1.653	1.582	2.186	2.060	1.608	2.034	4.260	10.34	29.00	192.7	1099	1366	230.5	6.263	1.288	0.898	0.861	0.721	0.691	0.571	0.562	0.605	0.695	0.698	0.596	0.709	0.778	0.740	0.699	0.870	0.742
510.0	72.56	94.00	160.6	193.8	122.4	177.3	1015	1545	225.1	81.32	78.75	88.29	105.3	118.1	117.3	118.0	103.3	71.72	58.69	53.13	52.67	50.77	45.77	43.37	38.93	31.86	25.37	18.49	13.72	10.61	8.423	6.598	5.571	4.690	4.030	3.839	3.367	3.288	2.620	2.413	2.880	5.940	12.74	12.82	5.676	2.136	1.467	1.492	1.514	1.607	1.842	1.674	1.968	3.371	7.670	44.17	275.9	719.1	988.1	459.1	18.48	1.243	0.902	0.715	0.655	0.542	0.460	0.521	0.551	0.582	0.644	0.636	0.646	0.719	0.587	0.646	0.639
515.0	60.60	78.02	103.8	187.4	135.1	106.5	320.4	1680	830.3	77.54	64.70	73.52	87.44	96.73	94.56	95.04	83.94	57.24	47.04	43.61	41.89	39.98	36.68	35.90	31.79	26.79	20.18	15.36	11.33	8.861	7.129	5.915	4.614	4.263	3.763	3.444	2.907	2.895	2.130	2.197	1.929	2.812	5.889	12.15	11.04	4.439	1.541	1.222	1.316	1.209	1.403	1.795	1.473	1.590	2.551	10.91	62.74	162.1	370.7	1077	334.3	24.06	1.225	0.795	0.646	0.606	0.417	0.456	0.563	0.467	0.561	0.608	0.528	0.536	0.548	0.460	0.503
520.0	52.38	66.01	76.23	150.6	157.7	83.72	131.3	989.1	1571	162.3	57.72	63.78	74.90	80.14	79.62	81.42	70.93	48.23	38.00	37.31	34.91	35.09	31.79	29.34	27.13	23.58	17.75	13.20	9.517	7.612	6.016	5.448	4.172	3.625	3.507	2.748	2.948	2.493	2.133	1.982	1.760	2.022	2.908	7.253	12.24	8.444	2.493	1.215	1.096	1.082	1.228	1.645	1.750	1.139	1.393	3.295	15.17	37.19	86.84	480.2	1244	302.4	17.80	1.113	0.739	0.581	0.495	0.467	0.443	0.411	0.434	0.501	0.431	0.504	0.375	0.461	0.478
525.0	46.95	56.45	61.88	104.9	182.3	83.25	82.93	375.9	1830	403.9	49.65	54.37	64.41	71.18	69.68	69.72	60.43	41.58	33.30	30.92	30.35	30.05	27.83	26.08	22.83	20.74	15.46	11.55	8.595	6.858	5.486	4.877	3.744	3.337	3.316	2.507	2.696	2.385	2.005	1.930	1.642	1.550	1.780	3.821	9.499	11.09	4.957	1.510	1.107	0.989	0.936	1.306	1.626	1.198	0.996	1.500	4.289	9.250	20.27	116.3	699.3	1072	270.1	5.909	0.862	0.557	0.468	0.409	0.379	0.410	0.383	0.318	0.445	0.405	0.301	0.401	0.321
530.0	44.42	45.10	50.07	68.41	148.6	111.4	60.79	130.5	1005	1535	148.9	47.10	52.87	57.59	57.64	57.52	50.01	34.47	28.35	24.98	24.83	24.30	23.41	21.54	18.79	15.95	12.82	9.606	6.979	5.811	4.528	4.146	3.365	2.982	2.695	2.402	2.305	2.179	1.903	1.478	1.561	1.350	1.429	1.917	4.507	9.058	7.910	3.477	1.271	0.877	0.821	0.902	1.184	1.455	1.296	1.123	1.671	2.744	5.277	26.90	169.7	518.7	1025	398.8	18.56	0.862	0.560	0.472	0.525	0.479	0.406	0.408	0.434	0.327	0.305	0.361	0.379
535.0	35.78	35.82	42.37	49.53	87.07	144.1	62.71	64.30	286.4	1831	735.0	45.60	42.81	48.28	47.04	47.78	39.96	28.21	22.51	20.37	19.60	19.66	19.87	17.03	14.72	13.27	10.55	7.892	5.624	5.103	3.726	3.578	2.721	2.701	1.966	2.285	2.031	1.781	1.600	1.267	1.436	1.085	1.219	1.292	1.948	4.309	7.496	6.851	2.505	0.954	0.761	0.706	0.871	1.050	1.445	1.376	1.063	1.089	1.763	6.729	38.58	116.6	346.7	851.4	334.1	24.47	0.708	0.497	0.493	0.499	0.336	0.355	0.363	0.414	0.340	0.404	0.319
540.0	27.60	34.50	35.29	38.59	52.96	135.7	78.54	42.95	96.61	1059	1445	102.4	34.54	39.17	38.84	40.37	33.87	24.02	19.49	17.76	16.75	17.33	15.47	15.06	12.67	10.98	8.930	6.786	5.298	3.957	3.351	2.763	2.407	2.269	2.118	1.859	1.702	1.646	1.433	1.202	1.251	0.995	1.098	1.070	1.243	1.970	4.828	7.433	4.165	1.400	0.768	0.602	0.698	0.701	1.059	1.558	1.076	0.790	0.935	2.075	9.155	26.79	80.02	354.9	841.7	290.6	13.65	0.522	0.406	0.406	0.354	0.308	0.367	0.319	0.286	0.357	0.275
545.0	34.83	25.57	30.93	31.14	35.44	98.78	110.2	39.19	46.77	361.6	1678	303.2	31.77	33.45	33.76	33.66	28.40	19.67	15.98	14.97	14.47	14.05	13.87	12.39	10.69	9.302	7.255	5.818	4.751	3.749	2.909	2.556	2.159	2.150	1.828	1.883	1.496	1.470	1.301	1.116	1.026	0.962	1.077	0.908	1.007	1.153	2.408	6.028	6.094	2.463	0.921	0.588	0.527	0.582	0.749	1.173	1.367	0.757	0.655	1.025	2.564	6.519	18.77	84.69	416.7	709.9	199.4	4.588	0.482	0.425	0.350	0.290	0.358	0.254	0.339	0.295	0.244
550.0	23.58	22.87	26.36	26.09	26.73	51.99	122.9	54.67	31.79	104.5	877.1	1261	99.51	27.90	27.47	26.09	22.85	15.98	12.78	11.61	11.72	11.45	11.20	9.657	9.150	7.342	5.689	4.549	3.812	3.088	2.441	2.144	1.876	1.675	1.460	1.563	1.341	1.221	1.058	1.002	1.056	0.914	0.876	0.792	0.830	0.834	1.168	2.829	5.339	4.211	1.865	0.740	0.487	0.504	0.584	0.670	1.107	1.059	0.757	0.689	1.053	1.997	4.729	19.45	99.13	307.8	456.8	188.0	17.22	0.642	0.368	0.364	0.303	0.256	0.270	0.306	0.217
555.0	18.53	18.76	22.77	21.44	20.72	28.69	92.45	94.16	27.42	40.81	233.4	1431	600.6	25.27	23.11	21.08	16.90	12.34	10.52	8.700	9.277	9.027	8.605	7.518	6.783	5.581	4.483	3.341	2.914	2.618	1.891	1.930	1.656	1.486	1.514	1.271	1.196	0.935	0.799	0.929	0.908	0.813	0.681	0.631	0.689	0.745	0.688	1.140	2.737	4.449	3.353	1.406	0.448	0.445	0.420	0.516	0.722	0.989	1.074	0.707	0.655	0.801	1.581	4.865	22.67	69.22	142.2	408.8	282.6	22.58	0.586	0.384	0.335	0.253	0.288	0.262	0.221
560.0	16.10	16.68	19.42	21.13	16.24	20.92	50.01	114.0	33.50	24.33	69.33	779.0	1343	57.45	19.01	18.16	13.66	10.87	8.885	7.137	7.565	7.079	7.109	6.133	5.561	4.248	3.754	3.226	2.584	2.263	1.485	1.770	1.359	1.445	1.328	1.218	1.042	0.828	0.780	0.813	0.724	0.552	0.614	0.502	0.605	0.606	0.591	0.707	1.150	3.037	3.487	2.194	0.719	0.396	0.423	0.470	0.493	0.684	0.971	0.862	0.556	0.473	0.738	1.499	5.552	15.95	32.68	158.3	394.7	224.5	12.44	0.426	0.369	0.221	0.244	0.180	0.232
565.0	19.13	16.72	18.02	16.63	12.23	13.69	28.07	109.8	53.15	17.78	31.05	259.9	1665	206.6	16.13	15.61	13.09	9.362	6.940	6.315	6.444	5.514	5.426	4.940	4.622	3.792	3.281	2.976	2.331	1.783	1.430	1.463	1.304	1.068	1.039	0.993	0.959	0.801	0.796	0.756	0.574	0.628	0.622	0.493	0.594	0.539	0.553	0.576	0.626	1.594	3.107	3.083	1.135	0.443	0.375	0.447	0.474	0.490	0.738	1.096	0.905	0.521	0.549	0.713	1.678	4.099	7.873	37.35	172.2	394.9	148.1	5.131	0.390	0.332	0.288	0.207	0.224
570.0	16.37	15.34	15.87	14.88	12.29	12.98	17.27	65.87	89.35	22.42	19.41	73.61	897.3	953.4	60.87	12.59	10.81	7.323	5.948	5.014	5.270	4.608	4.252	3.883	3.679	3.056	2.831	2.240	1.710	1.437	1.285	1.180	1.181	1.073	0.896	0.835	0.744	0.644	0.547	0.664	0.549	0.563	0.550	0.428	0.483	0.416	0.404	0.439	0.483	0.688	1.502	2.404	2.003	0.898	0.391	0.406	0.394	0.379	0.549	0.767	1.014	0.766	0.521	0.487	0.799	1.327	2.154	8.838	40.57	155.2	267.8	155.5	17.52	0.554	0.292	0.204	0.222
575.0	19.96	15.31	15.20	13.38	9.903	10.11	11.64	28.42	101.9	42.40	16.93	31.84	233.5	1140	409.1	12.25	8.809	5.811	5.121	4.080	4.227	3.776	3.114	3.090	2.806	2.517	2.063	1.916	1.331	1.180	1.130	0.995	0.985	1.071	0.595	0.700	0.523	0.494	0.504	0.417	0.460	0.492	0.462	0.447	0.345	0.466	0.346	0.441	0.294	0.421	0.644	1.338	2.122	1.800	0.613	0.373	0.379	0.322	0.370	0.531	0.730	1.211	0.803	0.454	0.648	0.659	0.920	2.487	9.544	35.20	76.06	231.6	224.4	20.56	0.461	0.225	0.250
580.0	18.11	17.83	14.96	12.81	11.82	10.55	12.36	20.94	78.34	77.26	22.91	25.48	69.90	644.2	923.3	37.46	7.731	5.099	4.314	3.990	3.372	3.052	2.825	2.702	2.345	1.903	1.735	1.410	1.265	1.098	0.826	0.890	0.697	0.952	0.800	0.596	0.520	0.466	0.500	0.386	0.453	0.498	0.493	0.321	0.334	0.377	0.356	0.303	0.311	0.374	0.352	0.696	1.758	1.969	1.155	0.515	0.411	0.326	0.304	0.366	0.504	0.835	1.095	0.577	0.538	0.578	0.761	1.028	2.587	8.379	17.71	82.47	275.6	152.1	10.43	0.336	0.231
585.0	17.76	18.88	13.37	13.85	11.27	11.55	15.12	21.73	52.92	106.1	37.72	30.39	41.80	224.5	1165	154.3	6.994	5.491	3.632	3.269	3.161	2.632	2.568	2.446	2.007	1.685	1.377	1.280	1.170	0.792	0.756	0.745	0.659	0.918	0.619	0.569	0.484	0.501	0.482	0.399	0.452	0.510	0.450	0.321	0.302	0.353	0.315	0.337	0.256	0.346	0.278	0.382	0.980	1.868	1.621	0.804	0.398	0.427	0.339	0.430	0.377	0.641	1.043	0.728	0.547	0.449	0.642	0.638	1.067	2.262	4.597	19.51	112.3	249.6	46.68	3.622	0.235
590.0	17.76	16.58	14.97	13.41	12.25	14.76	20.02	28.25	45.15	110.8	86.65	50.72	49.76	81.57	651.2	842.6	32.54	4.564	3.349	2.538	2.677	2.285	2.195	1.894	1.600	1.547	1.247	0.968	1.019	0.850	0.610	0.658	0.600	0.699	0.557	0.654	0.450	0.541	0.434	0.398	0.423	0.363	0.323	0.328	0.325	0.336	0.297	0.311	0.283	0.258	0.253	0.311	0.467	1.102	1.710	1.099	0.639	0.410	0.345	0.385	0.398	0.492	0.680	0.864	0.776	0.598	0.567	0.645	0.789	0.949	1.463	4.892	26.31	97.60	155.9	98.85	13.95
595.0	19.08	15.94	15.25	12.59	14.49	19.71	25.06	37.36	46.88	94.58	131.2	75.50	60.76	54.14	190.5	1071	149.5	4.849	3.088	2.135	2.199	1.681	2.001	1.435	1.330	1.355	1.168	0.849	0.847	0.727	0.551	0.519	0.567	0.503	0.493	0.632	0.524	0.479	0.302	0.427	0.305	0.292	0.362	0.265	0.330	0.343	0.260	0.215	0.251	0.276	0.230	0.240	0.283	0.482	1.164	1.374	1.044	0.630	0.378	0.404	0.453	0.329	0.645	0.636	0.944	0.886	0.631	0.672	0.646	0.711	0.706	1.424	6.235	22.24	44.75	135.1	124.2
600.0	18.96	16.41	13.62	14.52	14.59	22.16	31.42	42.80	52.53	85.27	145.2	96.64	71.30	55.79	75.79	645.8	602.1	14.54	2.796	2.162	2.378	1.699	1.491	1.256	1.290	1.204	0.896	0.808	0.723	0.661	0.552	0.507	0.487	0.483	0.368	0.631	0.449	0.343	0.313	0.308	0.329	0.285	0.344	0.313	0.309	0.287	0.257	0.258	0.295	0.242	0.180	0.220	0.207	0.289	0.714	1.172	1.172	0.721	0.377	0.388	0.410	0.452	0.588	0.440	0.691	0.895	0.712	0.580	0.591	0.613	0.511	0.648	1.753	5.299	10.38	47.66	149.8
605.0	19.31	19.53	16.00	15.53	15.34	25.22	35.77	50.01	65.34	86.99	139.5	130.5	84.13	62.00	55.01	231.0	841.3	82.20	3.040	1.977	1.974	1.591	1.473	1.133	1.082	1.106	0.881	0.678	0.624	0.665	0.544	0.569	0.497	0.485	0.398	0.457	0.611	0.449	0.449	0.318	0.289	0.310	0.307	0.279	0.317	0.259	0.260	0.270	0.239	0.195	0.174	0.198	0.213	0.299	0.423	0.829	1.355	0.983	0.509	0.368	0.389	0.418	0.558	0.525	0.541	0.855	0.870	0.722	0.519	0.556	0.442	0.466	0.710	1.523	2.634	11.27	60.45
610.0	18.91	18.19	17.89	16.12	19.69	31.23	43.87	63.41	86.50	107.9	141.2	174.6	114.3	78.86	61.80	75.24	504.1	417.9	15.07	2.039	1.801	1.586	1.157	1.088	0.994	0.776	0.645	0.603	0.515	0.569	0.478	0.438	0.449	0.357	0.429	0.450	0.504	0.551	0.414	0.316	0.317	0.306	0.313	0.281	0.265	0.246	0.262	0.273	0.225	0.184	0.161	0.184	0.211	0.269	0.274	0.539	0.886	1.162	0.812	0.513	0.521	0.518	0.549	0.581	0.562	0.729	0.865	0.933	0.642	0.631	0.446	0.480	0.468	0.709	0.883	2.705	14.13
615.0	19.64	19.16	17.11	17.58	23.33	39.55	56.08	77.70	106.3	136.5	160.7	196.6	159.8	97.46	77.07	41.96	138.6	581.3	106.9	2.566	1.591	1.351	1.245	1.057	0.882	0.715	0.563	0.538	0.422	0.531	0.470	0.468	0.420	0.421	0.410	0.456	0.470	0.526	0.556	0.284	0.370	0.386	0.293	0.241	0.252	0.236	0.259	0.248	0.178	0.137	0.187	0.187	0.213	0.261	0.330	0.395	0.581	0.771	0.857	0.817	0.599	0.667	0.645	0.643	0.740	0.762	0.834	0.894	0.909	0.790	0.537	0.550	0.422	0.496	0.477	0.803	3.340
620.0	23.45	15.63	19.66	20.42	27.85	40.80	59.28	93.00	118.8	149.7	173.5	198.6	196.0	113.2	85.96	35.91	38.72	377.1	365.5	5.917	1.517	1.231	1.284	0.984	0.828	0.588	0.606	0.462	0.483	0.445	0.370	0.450	0.348	0.422	0.474	0.344	0.405	0.410	0.511	0.379	0.402	0.341	0.304	0.255	0.198	0.216	0.208	0.194	0.211	0.133	0.203	0.234	0.217	0.265	0.277	0.386	0.456	0.690	0.881	0.934	0.743	0.709	0.698	0.797	0.827	0.705	0.950	0.837	0.968	0.976	0.524	0.620	0.559	0.513	0.410	0.349	0.880
625.0	27.06	21.00	15.53	18.14	28.70	45.45	62.13	93.56	133.2	162.3	178.6	188.1	209.0	120.0	91.40	36.96	16.98	142.2	566.0	43.41	1.660	1.337	1.065	0.861	0.748	0.546	0.540	0.495	0.361	0.496	0.315	0.402	0.290	0.417	0.366	0.325	0.371	0.396	0.393	0.515	0.360	0.311	0.296	0.300	0.252	0.183	0.195	0.159	0.210	0.153	0.185	0.279	0.215	0.291	0.261	0.349	0.351	0.494	0.845	1.003	0.827	0.753	0.816	0.824	0.863	0.793	0.696	0.817	0.837	1.120	0.734	0.547	0.533	0.553	0.401	0.266	0.335
630.0	27.24	24.28	16.04	20.56	28.32	47.15	65.95	103.9	134.1	162.3	183.3	189.0	195.2	141.3	95.08	37.75	12.40	37.96	381.3	235.8	7.020	1.329	1.077	0.868	0.619	0.562	0.541	0.444	0.435	0.397	0.343	0.370	0.353	0.368	0.418	0.391	0.441	0.385	0.347	0.522	0.553	0.274	0.276	0.232	0.248	0.206	0.188	0.191	0.188	0.154	0.190	0.226	0.230	0.272	0.316	0.343	0.411	0.517	0.654	0.888	0.933	0.797	0.761	0.737	0.835	0.763	0.704	0.778	0.834	0.965	0.844	0.581	0.577	0.570	0.381	0.305	0.220
635.0	23.85	25.84	20.23	22.61	33.04	47.80	68.30	103.7	134.2	169.0	194.3	193.6	183.0	156.1	104.9	38.65	11.00	12.98	108.4	430.5	73.75	1.568	0.900	0.852	0.603	0.623	0.484	0.460	0.379	0.282	0.337	0.280	0.331	0.312	0.356	0.370	0.426	0.409	0.335	0.391	0.638	0.446	0.292	0.251	0.289	0.174	0.262	0.203	0.201	0.190	0.192	0.162	0.316	0.292	0.248	0.366	0.375	0.420	0.620	0.633	0.826	0.933	0.953	0.772	0.870	0.828	0.714	0.789	0.876	0.768	0.773	0.719	0.617	0.479	0.371	0.310	0.183
640.0	24.48	26.64	19.71	22.96	33.93	50.87	69.70	100.4	140.7	183.6	194.5	195.2	179.4	154.7	115.1	42.95	11.60	8.851	29.19	321.1	262.7	3.398	1.140	0.844	0.687	0.577	0.531	0.330	0.408	0.318	0.316	0.256	0.317	0.319	0.397	0.505	0.511	0.442	0.319	0.294	0.456	0.442	0.331	0.262	0.295	0.255	0.238	0.256	0.244	0.228	0.175	0.203	0.214	0.258	0.344	0.290	0.445	0.406	0.490	0.674	0.702	1.001	1.014	0.867	0.879	0.805	0.810	0.980	0.772	0.839	0.703	0.692	0.772	0.719	0.390	0.261	0.212
645.0	31.73	26.87	23.56	23.42	37.15	48.28	73.38	106.5	143.9	182.9	201.3	201.3	179.9	149.7	129.6	45.81	14.35	8.858	11.87	135.0	455.7	23.69	1.466	0.935	0.507	0.741	0.480	0.417	0.374	0.297	0.290	0.275	0.312	0.299	0.354	0.378	0.434	0.420	0.322	0.324	0.313	0.554	0.394	0.257	0.224	0.209	0.242	0.253	0.217	0.181	0.164	0.206	0.226	0.245	0.321	0.256	0.390	0.464	0.528	0.622	0.734	0.917	1.023	0.855	0.869	0.840	0.847	0.834	0.695	0.704	0.669	0.723	0.799	0.587	0.424	0.269	0.223
650.0	36.18	28.91	25.16	24.79	35.39	48.08	74.95	108.4	142.5	179.2	204.6	199.8	184.1	144.3	136.3	51.44	17.66	10.79	9.625	40.57	444.9	91.85	1.701	0.969	0.603	0.924	0.431	0.439	0.340	0.327	0.268	0.272	0.392	0.307	0.344	0.353	0.439	0.421	0.328	0.409	0.276	0.396	0.583	0.243	0.226	0.260	0.352	0.253	0.172	0.147	0.159	0.241	0.231	0.249	0.243	0.286	0.431	0.504	0.504	0.571	0.730	0.898	1.020	0.897	0.891	0.876	0.813	0.948	0.805	0.695	0.656	0.692	0.753	0.606	0.546	0.283	0.164
