Sample:	'1
File name:	T2025032002º«µêºÓ2.FD3
Run date:	'09:24:05, 03/21/2025
Operator:	Administrator
Comment:	'

Instrument
Model:	F-2700 FL Spectrophotometer
Serial number:	23B8-004
ROM Version:	4J14000 07

Instrument parameters
Measurement type:	3-D scan
Data mode:	Fluorescence
EX  Start WL:	220.0 nm
EX  End WL:	600.0 nm
EX Sampling interval:	5.0 nm
EM  Start WL:	230.0 nm
EM  End WL:	650.0 nm
EM Sampling interval:	5.0 nm
Scan speed:	12000 nm/min
EX Slit:	5.0 nm
EM Slit:	5.0 nm
PMT Voltage:	700 V
Response:	Auto 
Corrected spectra:	Off
Contour interval:	50.000

Peak integration
Integration method:	Rectangular
Sensitivity:	1
Threshold:	1.000

Peaks
No.	ApexEX/EM(nm)	Height(Data)
1	225.0/340.0	787.8
2	225.0/415.0	359.7
3	225.0/490.0	269.7
4	230.0/345.0	783.5
5	230.0/500.0	255.3
6	235.0/255.0	387.9
7	235.0/405.0	370.8
8	235.0/510.0	197.4
9	240.0/265.0	454.6
10	240.0/525.0	186.9
11	245.0/270.0	427.9
12	245.0/440.0	299.5
13	245.0/535.0	155.5
14	250.0/275.0	556.4
15	250.0/445.0	291.6
16	250.0/550.0	141.1
17	255.0/280.0	627.0
18	255.0/565.0	124.6
19	260.0/290.0	582.1
20	260.0/575.0	107.3
21	265.0/295.0	650.5
22	265.0/585.0	93.44
23	270.0/300.0	888.6
24	270.0/600.0	80.65
25	275.0/305.0	909.5
26	275.0/610.0	65.97
27	280.0/310.0	796.8
28	280.0/625.0	58.15
29	285.0/315.0	790.8
30	285.0/635.0	43.56
31	290.0/325.0	728.2
32	295.0/330.0	531.6
33	300.0/335.0	477.8
34	305.0/345.0	377.7
35	310.0/350.0	298.2
36	315.0/355.0	279.6
37	320.0/360.0	268.9
38	325.0/370.0	238.0
39	330.0/375.0	235.6
40	335.0/380.0	238.9
41	345.0/395.0	187.8
42	350.0/400.0	193.0
43	355.0/405.0	174.3
44	360.0/415.0	146.9
45	365.0/420.0	150.0
46	370.0/425.0	130.4
47	380.0/440.0	99.25
48	385.0/445.0	88.33
49	395.0/460.0	62.18
50	400.0/465.0	54.31
51	410.0/480.0	36.59
52	415.0/485.0	32.41
53	425.0/500.0	23.92
54	430.0/505.0	20.49
55	440.0/520.0	14.76
56	445.0/525.0	12.70
57	455.0/340.0	2.099
58	455.0/540.0	8.940
59	460.0/335.0	2.117
60	470.0/560.0	4.070
61	485.0/265.0	2.293
62	495.0/270.0	2.129
63	505.0/275.0	3.202
64	510.0/280.0	3.555
65	515.0/285.0	3.632
66	530.0/290.0	3.501
67	540.0/295.0	4.419
68	545.0/300.0	4.706
69	550.0/305.0	4.800
70	560.0/310.0	4.324
71	570.0/315.0	4.753
72	580.0/320.0	4.747
73	585.0/325.0	4.494

Data points
	220.0	225.0	230.0	235.0	240.0	245.0	250.0	255.0	260.0	265.0	270.0	275.0	280.0	285.0	290.0	295.0	300.0	305.0	310.0	315.0	320.0	325.0	330.0	335.0	340.0	345.0	350.0	355.0	360.0	365.0	370.0	375.0	380.0	385.0	390.0	395.0	400.0	405.0	410.0	415.0	420.0	425.0	430.0	435.0	440.0	445.0	450.0	455.0	460.0	465.0	470.0	475.0	480.0	485.0	490.0	495.0	500.0	505.0	510.0	515.0	520.0	525.0	530.0	535.0	540.0	545.0	550.0	555.0	560.0	565.0	570.0	575.0	580.0	585.0	590.0	595.0	600.0
230.0	65.70	982.0	2000	507.9	14.78	2.646	1.819	1.697	1.621	1.234	1.073	1.262	0.986	0.737	0.695	0.609	0.526	0.433	0.421	0.365	0.329	0.275	0.299	0.265	0.241	0.219	0.188	0.182	0.173	0.185	0.155	0.154	0.129	0.164	0.151	0.137	0.142	0.130	0.135	0.122	0.322	0.684	0.553	0.231	0.097	0.167	1.181	4.570	6.587	3.992	1.197	0.215	0.065	0.073	0.065	0.068	0.066	0.047	0.051	0.060	0.052	0.056	0.050	0.066	0.056	0.053	0.051	0.050	0.043	0.051	0.051	0.044	0.041	0.060	0.042	0.052	0.049
235.0	191.3	285.1	1280	1815	458.0	21.18	3.080	2.269	1.401	1.625	1.318	1.498	1.357	0.704	0.807	0.566	0.555	0.356	0.431	0.461	0.303	0.259	0.294	0.239	0.233	0.225	0.235	0.220	0.161	0.138	0.151	0.181	0.166	0.123	0.142	0.099	0.151	0.079	0.142	0.125	0.150	0.314	0.619	0.713	0.503	0.252	0.373	1.211	2.802	4.477	5.297	5.608	2.138	0.362	0.077	0.061	0.062	0.052	0.074	0.060	0.080	0.039	0.036	0.062	0.055	0.048	0.058	0.056	0.039	0.069	0.043	0.063	0.057	0.051	0.036	0.043	0.066
240.0	284.7	188.0	388.0	1626	1825	348.2	11.49	2.996	2.393	1.760	1.763	1.645	1.511	1.012	0.695	0.647	0.723	0.567	0.493	0.554	0.270	0.305	0.233	0.266	0.275	0.222	0.188	0.207	0.242	0.132	0.181	0.159	0.160	0.159	0.138	0.087	0.170	0.097	0.121	0.128	0.132	0.177	0.277	0.428	0.677	0.872	0.476	0.365	0.714	1.358	3.273	7.098	8.195	5.263	1.673	0.238	0.065	0.067	0.099	0.063	0.056	0.045	0.045	0.058	0.042	0.061	0.062	0.065	0.058	0.058	0.047	0.065	0.055	0.045	0.041	0.084	0.047
245.0	189.6	309.4	160.3	587.2	2073	1813	236.3	6.339	3.333	2.709	1.940	1.512	1.472	1.094	0.560	0.649	0.772	0.712	0.497	0.443	0.374	0.295	0.290	0.255	0.268	0.251	0.273	0.200	0.215	0.169	0.160	0.155	0.201	0.203	0.140	0.117	0.166	0.122	0.140	0.114	0.142	0.098	0.116	0.190	0.388	0.757	0.957	0.690	0.305	0.399	0.882	2.538	6.457	9.705	9.520	4.404	0.965	0.138	0.070	0.069	0.055	0.043	0.045	0.075	0.062	0.080	0.076	0.054	0.042	0.061	0.063	0.061	0.046	0.046	0.042	0.065	0.040
250.0	61.61	223.6	297.6	237.2	684.7	1885	2260	718.0	33.80	3.790	2.740	2.204	1.681	1.284	1.002	0.779	0.732	0.642	0.499	0.529	0.399	0.330	0.349	0.300	0.276	0.259	0.301	0.206	0.262	0.208	0.166	0.157	0.164	0.219	0.112	0.133	0.137	0.128	0.142	0.124	0.202	0.127	0.121	0.106	0.178	0.323	0.548	1.002	1.053	0.840	0.540	0.726	1.658	3.283	6.037	8.863	11.48	9.321	4.550	1.063	0.128	0.074	0.058	0.084	0.076	0.075	0.065	0.044	0.051	0.055	0.067	0.052	0.053	0.041	0.050	0.059	0.041
255.0	25.24	67.25	228.5	387.9	243.7	492.9	1879	2904	296.6	28.66	4.084	3.056	2.093	1.759	1.489	1.058	0.841	0.716	0.673	0.563	0.487	0.393	0.309	0.328	0.283	0.303	0.318	0.235	0.232	0.247	0.181	0.186	0.118	0.285	0.140	0.168	0.145	0.151	0.103	0.128	0.131	0.134	0.115	0.104	0.127	0.166	0.219	0.326	0.529	0.946	1.192	1.205	0.802	0.838	1.445	2.229	4.518	10.22	17.33	16.49	6.766	1.081	0.097	0.092	0.087	0.068	0.079	0.066	0.041	0.078	0.078	0.045	0.061	0.071	0.090	0.048	0.055
260.0	17.06	25.76	82.60	357.5	341.0	159.3	572.9	2820	2350	238.7	12.90	4.286	2.354	1.903	1.642	1.171	1.045	0.717	0.646	0.617	0.405	0.349	0.428	0.306	0.310	0.347	0.314	0.311	0.235	0.211	0.201	0.211	0.203	0.186	0.194	0.182	0.147	0.158	0.131	0.165	0.126	0.123	0.137	0.127	0.141	0.152	0.124	0.174	0.196	0.358	0.836	1.718	1.728	0.998	0.478	0.615	1.170	2.848	7.746	17.40	22.30	14.81	4.553	0.509	0.109	0.073	0.064	0.079	0.062	0.090	0.069	0.091	0.068	0.063	0.088	0.038	0.080
265.0	19.81	16.50	27.73	168.4	454.6	244.6	163.9	978.6	3725	2028	177.1	6.607	3.263	2.551	1.802	1.140	1.100	0.763	0.695	0.709	0.636	0.461	0.497	0.427	0.332	0.332	0.325	0.284	0.290	0.285	0.240	0.224	0.179	0.184	0.184	0.217	0.112	0.147	0.167	0.152	0.157	0.107	0.196	0.123	0.142	0.084	0.131	0.161	0.127	0.179	0.308	0.849	1.719	2.293	1.444	0.502	0.394	0.816	1.958	5.195	12.46	22.50	23.34	12.50	2.572	0.146	0.092	0.089	0.086	0.076	0.066	0.080	0.048	0.052	0.073	0.069	0.050
270.0	30.56	18.42	16.73	49.49	210.4	427.9	273.8	262.4	1223	3269	3508	706.1	30.83	3.641	2.531	1.795	1.357	1.066	0.854	0.748	0.719	0.528	0.482	0.504	0.367	0.323	0.366	0.304	0.298	0.282	0.267	0.244	0.273	0.269	0.176	0.238	0.180	0.192	0.206	0.178	0.175	0.156	0.178	0.168	0.151	0.168	0.134	0.141	0.138	0.116	0.148	0.299	0.596	1.209	1.915	2.129	1.674	0.849	0.679	1.322	3.058	6.554	12.40	19.13	21.98	18.52	9.682	2.377	0.237	0.100	0.089	0.073	0.076	0.071	0.062	0.094	0.081
275.0	70.76	47.64	27.35	24.06	58.51	189.0	556.4	307.4	316.3	835.8	2993	5832	903.8	24.71	4.495	2.527	1.751	1.365	1.135	1.075	0.788	0.516	0.473	0.505	0.396	0.335	0.316	0.317	0.342	0.256	0.300	0.291	0.269	0.323	0.297	0.374	0.453	0.335	0.262	0.273	0.239	0.299	0.259	0.253	0.230	0.192	0.245	0.154	0.147	0.101	0.130	0.183	0.220	0.348	0.552	0.961	2.045	3.202	1.941	0.781	0.899	1.657	2.960	4.694	6.872	15.45	28.81	28.25	13.31	2.095	0.158	0.141	0.111	0.131	0.072	0.070	0.077
280.0	129.8	86.38	44.77	27.20	28.69	66.49	351.1	627.0	221.3	241.0	880.1	4728	5162	142.3	10.47	3.682	2.573	1.731	1.355	1.110	0.891	0.687	0.580	0.564	0.449	0.366	0.474	0.329	0.350	0.288	0.351	0.349	0.230	0.471	0.440	0.510	0.486	0.463	0.334	0.342	0.264	0.370	0.317	0.350	0.302	0.376	0.389	0.306	0.179	0.172	0.137	0.142	0.160	0.185	0.232	0.375	0.764	2.146	3.555	2.790	1.217	0.737	0.914	1.343	1.834	4.088	10.34	23.07	34.71	24.95	9.174	1.071	0.151	0.140	0.088	0.061	0.126
285.0	176.4	119.7	72.52	35.66	27.36	33.19	127.9	575.8	522.3	151.9	266.5	1475	5394	3995	102.8	6.229	3.330	2.274	1.505	1.159	0.884	0.830	0.698	0.593	0.494	0.500	0.588	0.375	0.265	0.337	0.279	0.285	0.372	0.482	0.603	0.658	0.639	0.679	0.438	0.459	0.364	0.481	0.373	0.481	0.412	0.601	0.456	0.267	0.287	0.243	0.167	0.175	0.211	0.168	0.215	0.206	0.342	0.714	1.776	3.632	3.588	2.144	0.792	0.626	0.773	1.240	2.752	6.322	15.07	28.80	32.48	20.09	5.135	0.405	0.107	0.098	0.136
290.0	216.9	163.7	98.04	56.43	38.54	37.38	62.65	221.2	582.1	490.7	195.8	415.6	1608	3882	3884	420.7	21.29	3.615	2.068	1.551	1.108	0.938	0.832	0.647	0.557	0.584	0.565	0.486	0.355	0.326	0.302	0.355	0.379	0.522	0.594	0.770	0.827	0.763	0.669	0.517	0.499	0.553	0.503	0.602	0.521	0.540	0.429	0.411	0.407	0.306	0.239	0.233	0.245	0.227	0.245	0.233	0.298	0.365	0.686	1.299	2.136	3.197	3.501	2.209	1.167	0.750	1.073	1.847	3.783	7.699	13.37	21.05	24.50	23.57	13.52	4.383	0.576
295.0	245.9	198.2	127.9	79.07	57.40	52.75	62.20	106.8	235.4	650.5	621.0	233.2	440.7	961.5	2641	4693	584.5	17.19	3.260	1.743	1.698	1.189	1.075	0.737	0.667	0.609	0.552	0.521	0.429	0.474	0.402	0.418	0.464	0.631	0.704	0.800	0.814	0.824	0.683	0.698	0.609	0.657	0.581	0.634	0.640	0.621	0.502	0.596	0.510	0.361	0.326	0.287	0.291	0.287	0.306	0.308	0.351	0.383	0.394	0.633	0.832	1.203	1.933	3.418	4.419	2.538	1.058	0.939	1.381	2.238	3.414	5.068	6.509	12.64	26.05	32.31	20.43
300.0	266.2	226.1	164.6	109.2	78.12	73.41	83.30	105.3	152.2	367.2	888.6	467.4	221.7	303.2	746.2	3540	4137	85.97	7.683	2.700	2.152	1.421	1.086	0.977	0.860	0.725	0.623	0.491	0.473	0.483	0.391	0.415	0.468	0.707	0.704	0.787	0.766	0.806	0.630	0.685	0.632	0.705	0.660	0.659	0.662	0.665	0.633	0.642	0.535	0.404	0.394	0.405	0.388	0.316	0.419	0.379	0.455	0.374	0.493	0.495	0.603	0.787	1.156	1.917	3.537	4.706	3.659	1.516	1.049	1.042	1.366	1.567	1.986	3.388	8.054	19.32	33.91
305.0	309.3	267.0	217.9	142.9	107.8	104.3	119.2	137.6	175.6	270.3	663.4	909.5	345.8	202.7	277.7	1109	4155	3145	66.50	4.476	2.660	1.854	1.286	0.985	0.914	0.784	0.599	0.495	0.501	0.481	0.495	0.419	0.551	0.592	0.758	0.797	0.945	0.918	0.695	0.819	0.761	0.752	0.724	0.650	0.759	0.738	0.775	0.784	0.694	0.525	0.483	0.543	0.460	0.463	0.446	0.535	0.518	0.591	0.556	0.780	0.740	0.821	0.994	1.457	1.821	3.224	4.800	4.675	2.467	1.502	1.270	1.121	1.111	1.408	2.303	5.114	12.23
310.0	343.3	332.2	273.9	191.4	145.2	135.8	157.8	183.4	212.0	272.2	417.5	746.7	796.8	370.9	226.6	359.4	1268	2973	2963	291.3	15.37	2.720	2.060	1.268	1.035	0.880	0.741	0.645	0.579	0.498	0.559	0.426	0.485	0.579	0.709	0.740	0.878	0.853	0.736	0.830	0.682	0.815	0.734	0.711	0.904	0.817	0.815	0.899	0.864	0.686	0.601	0.642	0.567	0.556	0.540	0.636	0.673	0.744	0.821	0.918	0.828	1.019	1.150	1.395	1.444	1.879	2.633	3.710	4.324	4.021	2.922	1.825	1.328	1.217	1.342	1.827	3.438
315.0	437.0	444.7	358.5	246.3	177.6	168.7	188.0	207.5	235.2	284.9	373.9	480.4	683.7	790.8	326.9	218.5	389.8	751.8	1956	3501	438.7	11.46	2.893	1.636	1.361	1.068	0.782	0.703	0.671	0.529	0.557	0.437	0.465	0.597	0.711	0.761	0.791	0.811	0.724	0.904	0.857	0.846	0.824	0.866	0.918	1.061	1.016	1.098	0.908	0.780	0.730	0.789	0.761	0.733	0.707	0.778	0.873	0.931	1.018	0.904	1.018	1.141	1.224	1.448	1.449	1.589	1.967	2.201	2.621	3.345	4.753	4.411	2.701	1.673	1.284	1.125	1.513
320.0	529.0	511.0	416.2	286.5	204.2	188.7	198.1	225.2	253.1	304.2	373.0	434.8	505.1	781.7	586.7	225.0	206.6	240.9	536.8	2556	3057	64.84	5.521	2.411	1.678	1.264	0.755	0.688	0.781	0.638	0.527	0.496	0.441	0.592	0.637	0.715	0.761	0.780	0.723	0.868	0.976	1.009	0.954	0.911	1.056	1.342	1.297	1.275	1.242	0.974	0.804	0.959	0.883	0.740	0.708	0.784	1.029	1.014	1.023	1.138	1.212	1.031	1.442	1.447	1.453	1.688	1.959	1.789	1.934	2.674	3.068	4.123	4.747	3.167	1.985	1.217	1.160
325.0	589.3	613.3	535.0	338.9	220.2	192.5	200.4	235.1	257.9	309.4	376.9	428.0	447.7	549.7	728.2	365.1	181.2	132.2	157.8	762.1	2938	2358	53.25	3.827	1.926	1.380	0.959	0.828	0.748	0.771	0.558	0.524	0.504	0.661	0.651	0.705	0.808	0.809	0.767	0.789	0.859	1.066	0.970	1.109	1.330	1.387	1.510	1.719	1.557	1.253	1.022	1.116	0.874	0.753	0.770	0.788	0.937	0.959	1.023	1.052	1.015	1.077	1.337	1.636	1.540	1.837	2.001	2.017	1.987	2.240	2.468	2.625	3.483	4.494	3.532	2.054	1.274
330.0	656.9	720.6	686.0	498.8	294.2	211.8	204.7	231.4	258.1	304.2	370.2	420.3	426.1	426.8	499.2	531.6	305.8	124.0	83.79	203.0	858.9	2172	2254	235.9	12.38	2.089	1.465	1.190	0.930	0.829	0.640	0.623	0.523	0.608	0.637	0.689	0.780	0.880	0.798	0.850	0.930	1.037	1.093	1.175	1.391	1.649	1.728	1.944	1.888	1.647	1.398	1.538	1.170	0.974	0.895	0.787	0.871	0.961	1.113	1.191	1.068	1.190	1.300	1.532	1.542	1.736	1.805	2.030	2.006	2.188	2.187	2.186	2.231	2.679	3.198	3.212	2.926
335.0	696.8	781.9	763.3	604.2	366.2	235.0	205.1	227.1	243.3	302.9	356.8	397.4	404.6	382.6	354.3	373.0	477.8	222.3	80.97	86.05	222.1	529.7	1564	2772	358.4	9.610	2.052	1.695	0.967	0.919	0.931	0.742	0.531	0.623	0.721	0.792	0.736	0.860	0.708	0.895	0.959	0.997	1.079	1.264	1.457	1.576	1.711	2.045	2.117	1.943	1.592	1.791	1.493	1.018	0.961	0.810	0.839	0.870	0.969	1.198	1.057	1.079	1.241	1.359	1.629	1.594	1.851	1.754	1.791	1.893	1.895	1.883	1.948	2.000	2.000	1.994	2.835
340.0	666.7	787.8	777.6	612.9	395.8	245.6	210.6	227.3	235.1	283.7	334.6	372.2	380.4	356.6	307.5	269.1	378.4	376.4	122.2	65.47	85.39	146.2	434.1	2114	2431	54.66	4.442	1.734	1.055	1.131	0.925	0.670	0.750	0.603	0.743	0.738	0.796	0.810	0.900	0.789	0.876	1.017	1.101	1.327	1.303	1.649	1.683	2.099	2.067	1.861	1.673	1.977	1.553	1.172	1.011	0.849	0.867	0.891	1.039	1.091	1.090	1.166	1.137	1.361	1.553	1.605	1.597	1.692	1.844	1.790	1.802	1.813	1.803	1.899	1.564	1.438	1.855
345.0	638.9	752.9	783.5	635.3	398.1	252.3	208.9	221.9	229.6	272.5	315.6	352.0	358.8	336.4	289.1	236.4	249.1	377.7	242.6	76.01	60.88	67.66	124.3	642.8	2425	1842	44.48	2.694	1.464	1.234	1.080	0.744	0.650	0.748	0.744	0.796	0.847	0.801	0.855	0.801	0.921	0.991	1.103	1.203	1.330	1.508	1.596	1.871	2.081	1.944	1.901	1.992	1.718	1.320	1.113	0.874	0.859	0.870	1.076	0.976	1.071	1.098	1.235	1.284	1.417	1.448	1.640	1.661	1.680	1.721	1.644	1.571	1.769	1.724	1.412	1.473	1.353
350.0	595.7	692.7	724.4	619.1	414.5	266.6	212.8	213.9	223.6	259.3	290.9	319.4	325.3	308.8	268.3	218.1	192.6	230.1	298.2	197.1	71.57	59.45	62.79	168.6	727.1	1754	1726	204.2	9.832	1.695	1.171	0.953	0.711	0.811	0.664	0.765	0.776	0.805	0.795	0.776	0.823	0.990	1.047	1.092	1.194	1.402	1.492	1.702	1.925	1.819	1.773	1.884	1.637	1.285	1.124	0.965	0.999	0.912	1.050	0.938	1.095	1.156	1.235	1.134	1.338	1.299	1.494	1.547	1.586	1.521	1.538	1.469	1.610	1.489	1.340	1.406	1.247
355.0	555.8	610.4	640.3	566.7	412.8	274.2	221.6	222.2	217.5	240.3	267.2	292.0	291.7	281.8	247.1	207.4	179.4	167.8	190.8	279.6	174.4	72.68	59.29	72.10	186.9	428.4	1262	2096	305.4	6.927	1.645	1.163	0.928	0.765	0.579	0.833	0.761	0.741	0.889	0.633	0.712	0.869	0.887	1.013	1.058	1.327	1.388	1.676	1.677	1.437	1.667	1.587	1.660	1.340	1.141	1.012	1.004	0.975	1.033	0.943	1.132	0.978	1.095	1.072	1.083	1.243	1.324	1.291	1.379	1.435	1.488	1.409	1.600	1.335	1.351	1.337	1.248
360.0	515.6	573.1	590.1	530.8	393.7	277.5	234.2	220.6	220.2	229.1	251.5	271.4	274.1	266.3	236.6	204.1	179.7	156.6	147.4	217.2	268.9	124.6	67.96	56.35	72.55	118.0	357.9	1702	1866	49.35	2.993	1.491	1.075	0.919	0.695	0.707	0.622	0.717	0.908	0.652	0.750	0.776	0.906	0.910	1.061	1.146	1.249	1.365	1.572	1.577	1.670	1.718	1.563	1.274	1.357	1.116	1.048	1.005	0.947	0.975	1.005	0.953	1.078	1.118	1.219	1.274	1.230	1.200	1.297	1.337	1.340	1.398	1.449	1.326	1.392	1.192	1.094
365.0	485.4	511.2	546.4	506.0	396.5	288.9	239.4	222.6	226.7	228.7	247.1	260.7	261.8	253.0	234.3	201.2	179.0	159.0	142.9	158.3	252.4	218.7	93.19	62.56	56.02	54.63	101.4	536.1	1983	1453	38.70	2.281	1.250	1.070	0.949	0.735	0.711	0.819	0.886	0.677	0.759	0.792	0.938	0.864	0.916	1.136	1.237	1.482	1.541	1.403	1.449	1.786	1.627	1.413	1.239	0.990	0.959	1.000	0.918	1.092	1.005	1.100	1.094	1.151	1.268	1.161	1.118	1.265	1.267	1.212	1.282	1.431	1.387	1.275	1.263	1.197	1.211
370.0	450.2	490.9	509.3	468.2	386.9	305.0	248.5	233.3	230.3	234.2	241.6	255.5	250.7	244.3	226.2	202.2	182.3	164.1	152.6	148.5	173.5	238.0	191.1	88.37	62.31	50.58	51.44	142.2	610.3	1490	1430	176.3	7.890	1.581	1.035	0.755	0.804	0.788	0.775	0.710	0.769	0.872	0.786	0.859	0.898	1.108	1.084	1.344	1.354	1.267	1.336	1.511	1.498	1.307	1.278	1.116	1.038	1.085	1.124	1.122	1.041	0.987	1.107	1.082	1.108	1.122	1.121	1.082	1.182	1.049	1.220	1.272	1.345	1.306	1.263	1.235	1.158
375.0	418.1	453.1	472.3	436.4	382.9	315.5	256.2	245.1	239.3	242.7	241.3	250.1	243.9	235.3	217.5	200.2	188.9	172.6	162.3	153.6	151.6	167.6	235.6	181.5	86.07	62.51	52.02	61.89	157.6	371.6	1112	1680	249.6	5.688	1.307	1.019	0.986	0.798	0.828	0.654	0.777	0.752	0.657	0.885	0.857	0.947	1.027	1.145	1.274	1.186	1.283	1.427	1.398	1.400	1.169	1.067	1.187	1.044	1.139	1.142	1.153	0.971	1.042	1.058	1.068	1.175	1.065	1.033	1.101	1.012	1.215	1.301	1.241	1.272	1.305	1.263	1.277
380.0	413.9	442.6	445.7	416.8	375.8	320.8	273.2	256.9	245.2	245.7	246.3	249.9	249.1	234.8	215.8	200.1	186.7	177.6	168.8	158.7	151.4	147.5	189.1	238.9	135.2	76.10	59.74	52.04	63.08	104.0	323.5	1402	1406	40.53	2.397	1.251	1.043	0.886	0.801	0.671	0.795	0.745	0.859	0.861	0.956	0.854	0.952	1.129	1.239	1.116	1.040	1.345	1.474	1.314	1.197	1.212	1.150	1.099	1.091	1.097	1.119	1.055	1.079	1.297	1.130	1.179	1.098	1.098	1.179	1.142	1.210	1.152	1.148	1.331	1.204	1.273	1.152
385.0	396.5	415.5	415.2	417.0	368.9	321.2	278.0	263.4	255.6	247.3	248.8	243.1	247.5	235.9	211.8	200.4	191.8	180.2	175.3	164.9	155.5	148.6	153.1	214.3	202.7	100.1	68.71	57.16	48.00	49.02	94.63	451.6	1487	1057	30.25	1.723	1.290	1.032	0.860	0.871	0.739	0.703	0.804	0.913	0.944	0.881	0.903	1.052	1.121	1.179	1.017	1.412	1.423	1.486	1.149	1.144	1.232	1.078	1.129	1.127	1.087	1.139	1.196	1.159	1.183	1.180	1.144	1.094	1.140	1.244	1.221	1.199	1.268	1.259	1.100	1.217	1.233
390.0	367.7	404.7	402.4	392.2	367.7	322.0	288.0	269.2	258.4	251.5	249.6	241.6	239.5	229.1	209.8	200.7	190.0	184.4	179.8	171.6	161.6	154.4	148.9	160.3	199.7	171.2	95.69	66.47	52.72	42.94	46.39	120.5	454.8	1070	769.4	135.1	6.368	1.297	0.933	0.848	0.795	0.715	0.729	0.862	0.815	0.860	0.796	1.025	1.140	1.101	1.020	1.323	1.339	1.379	1.244	1.151	1.336	1.248	1.206	1.134	1.173	1.146	1.116	0.997	1.219	1.185	1.184	1.035	1.189	1.171	1.185	1.194	1.167	1.169	1.193	1.267	1.198
395.0	356.6	391.3	403.3	370.5	349.0	325.2	290.8	276.0	261.3	254.0	253.2	247.2	239.8	221.1	207.0	196.8	190.7	187.8	178.8	173.0	168.5	159.9	149.4	145.2	150.9	187.8	161.5	88.07	62.46	50.78	42.84	50.28	116.7	265.2	701.2	1129	194.4	4.262	1.281	0.957	0.894	0.803	0.715	0.772	0.757	0.905	0.859	1.049	1.112	0.993	1.082	1.181	1.291	1.271	1.331	1.192	1.305	1.105	1.143	1.132	1.175	1.123	1.125	1.043	1.234	1.165	1.137	1.023	1.249	1.067	1.095	1.119	1.313	1.090	1.170	1.151	1.226
400.0	358.5	391.5	401.3	366.5	348.3	323.6	291.3	274.7	264.7	262.2	254.9	242.2	235.0	221.3	203.3	195.0	186.9	187.2	179.8	174.5	169.5	159.7	151.4	144.1	138.0	153.4	193.0	127.9	72.73	58.18	46.33	40.34	44.20	72.36	203.5	920.5	967.8	34.10	2.072	1.140	0.928	0.835	0.807	0.801	0.722	0.934	0.892	1.057	1.095	1.006	1.038	1.085	1.262	1.214	1.302	1.252	1.316	1.202	1.291	1.230	1.201	1.128	1.117	1.183	1.170	1.160	1.137	1.066	1.155	1.042	1.086	1.188	1.159	1.221	1.338	0.974	1.186
405.0	342.6	357.2	369.9	370.8	343.6	321.0	297.9	282.2	268.5	260.6	258.0	241.7	231.0	215.8	201.9	192.8	184.6	181.9	178.8	172.1	169.7	160.1	152.3	145.7	135.2	131.6	168.3	174.3	97.73	64.99	52.98	42.08	31.73	31.01	56.11	288.4	986.6	719.6	26.80	1.626	1.085	0.873	0.883	0.725	0.856	0.905	1.016	1.022	1.082	0.964	0.915	1.142	1.219	1.201	1.202	1.241	1.236	1.293	1.346	1.219	1.143	1.235	1.203	1.242	1.123	1.044	1.120	1.084	1.146	1.163	1.118	1.172	1.019	1.218	1.256	1.083	1.174
410.0	320.5	349.7	355.9	355.5	341.4	318.8	298.6	289.4	270.7	260.8	257.3	242.6	230.6	212.9	198.2	187.1	180.1	177.1	173.1	169.7	166.3	160.7	153.8	146.0	135.0	125.1	131.7	159.7	146.1	87.94	59.02	45.87	32.84	25.48	25.52	73.90	295.6	698.6	566.0	123.1	5.264	1.028	0.881	0.816	0.791	0.918	0.876	0.939	0.992	0.934	0.987	1.094	1.160	1.207	1.187	1.173	1.275	1.214	1.269	1.304	1.098	1.249	1.188	1.234	1.153	1.110	1.125	1.091	1.092	1.109	1.079	1.158	1.050	1.188	1.149	1.003	1.215
415.0	327.1	359.7	351.7	323.5	328.3	309.2	296.9	293.0	283.2	263.1	256.0	238.6	227.5	206.5	190.1	180.4	172.4	172.7	168.4	165.0	159.8	154.5	150.3	144.0	136.2	125.7	117.1	120.6	146.9	134.2	75.42	50.45	37.10	28.22	21.67	28.18	73.98	172.3	470.1	795.4	167.7	3.746	1.158	0.973	0.846	0.859	0.762	1.042	0.925	0.874	0.932	1.103	1.167	1.185	1.175	1.138	1.330	1.164	1.221	1.174	1.106	1.351	1.187	1.230	1.154	1.021	1.135	1.121	1.102	0.996	1.191	1.197	1.155	1.059	1.014	1.065	1.039
420.0	301.1	350.0	334.2	313.4	319.8	304.8	299.1	287.0	271.3	269.6	252.1	233.2	219.1	202.5	185.4	175.9	167.5	165.0	160.0	159.2	155.1	151.3	146.1	140.6	135.0	126.4	115.9	108.6	120.4	150.0	104.3	55.52	41.16	31.33	23.34	19.56	26.40	45.78	132.9	613.1	698.1	31.55	1.848	1.036	0.981	0.799	0.740	0.878	1.022	0.925	0.861	1.101	1.151	1.189	1.221	1.230	1.238	1.197	1.277	1.000	1.133	1.188	1.096	1.089	1.150	1.082	1.051	1.103	1.201	1.000	1.102	1.102	0.978	1.111	1.082	1.092	1.045
425.0	293.8	314.5	322.1	316.1	310.4	306.1	295.6	290.8	270.7	268.2	251.5	231.7	216.2	199.0	182.2	169.2	162.0	161.4	156.8	154.6	150.5	147.2	143.0	138.5	131.2	125.4	114.4	107.2	103.2	128.6	130.4	73.74	44.74	33.42	25.37	19.69	17.27	18.42	36.22	187.5	664.5	536.2	25.24	1.358	1.090	0.892	0.773	0.935	1.068	0.915	0.945	1.016	1.187	1.111	1.144	1.203	1.250	1.191	1.256	1.189	1.291	1.181	1.102	1.193	1.084	1.101	1.089	1.151	1.150	1.112	0.985	1.170	1.047	1.103	1.020	1.091	1.053
430.0	441.2	303.0	309.6	300.9	301.0	297.8	296.4	288.4	277.2	263.6	247.5	227.6	209.3	194.6	174.6	163.6	155.5	154.3	150.1	147.1	142.4	139.2	138.2	134.2	129.0	122.1	113.3	107.6	99.33	100.9	116.6	106.2	62.41	39.05	29.79	22.50	18.03	14.62	15.92	48.23	193.0	479.9	436.9	113.6	5.542	1.163	0.892	0.924	0.941	0.881	0.892	1.074	1.074	1.166	1.101	1.170	1.254	1.281	1.316	1.312	1.263	1.231	1.146	1.085	1.090	1.085	1.012	1.103	1.043	1.023	0.958	0.980	0.988	0.970	0.917	1.008	0.986
435.0	972.2	316.5	310.5	306.1	288.0	297.5	292.4	287.9	280.5	262.9	244.0	223.9	203.6	188.0	169.7	158.4	151.1	147.0	144.3	139.1	134.8	134.3	133.0	129.1	124.6	118.5	112.5	107.5	98.78	93.92	91.48	102.3	93.43	48.79	33.24	26.72	21.16	15.87	13.05	18.24	48.70	116.4	324.5	638.8	165.0	4.695	1.117	1.090	0.830	0.906	0.950	1.113	1.024	1.153	1.049	1.086	1.261	1.318	1.245	1.180	1.135	1.161	1.067	1.196	1.086	1.178	1.124	1.044	1.046	0.972	0.956	1.110	0.917	0.929	0.899	0.958	0.932
440.0	1498	452.4	295.5	289.8	288.1	299.5	288.0	290.7	272.8	260.8	241.0	225.5	206.0	185.0	164.6	153.3	147.6	141.5	138.9	134.1	131.5	131.6	128.3	125.2	119.0	114.8	112.5	107.3	99.38	93.16	82.39	84.28	99.25	70.28	39.20	29.37	22.65	18.61	14.24	12.25	17.40	31.18	90.07	460.6	602.1	30.24	2.468	1.209	1.062	0.960	0.848	0.993	0.966	0.978	1.127	1.121	1.362	1.304	1.226	1.218	1.105	1.168	1.074	1.235	1.056	1.067	1.002	1.078	1.078	0.990	0.900	0.971	0.968	0.914	0.969	0.878	0.920
445.0	1519	785.0	286.0	273.2	280.1	288.4	291.6	283.4	267.8	257.6	233.6	222.4	198.8	181.5	161.3	147.2	141.3	138.1	134.9	131.6	126.5	122.7	121.5	120.2	115.2	113.2	110.0	103.8	98.27	92.85	81.88	75.01	85.89	88.33	51.38	31.04	24.80	19.94	15.88	11.89	11.41	12.86	24.80	135.3	530.6	495.9	23.61	1.598	1.157	0.942	0.834	0.958	0.960	1.064	1.161	1.194	1.238	1.191	1.298	1.309	1.188	1.178	1.195	1.212	1.156	1.051	0.912	1.026	1.024	0.979	0.822	0.814	0.928	0.854	0.856	0.753	0.914
450.0	937.6	1468	446.7	262.1	267.1	280.7	283.1	280.4	261.2	247.6	227.7	212.8	187.7	171.9	153.3	141.6	133.8	128.9	126.7	121.3	117.6	114.2	112.4	111.8	110.2	106.4	103.5	99.86	94.78	90.44	80.67	70.42	67.57	75.94	70.20	42.29	27.62	20.96	17.07	13.52	11.71	9.459	10.81	34.78	148.9	390.8	366.1	108.9	6.042	1.049	0.886	0.974	1.031	1.125	1.124	0.997	1.207	1.229	1.205	1.274	1.119	1.080	1.176	1.131	1.175	1.022	0.985	0.909	0.957	0.956	0.882	0.940	0.809	0.859	0.840	0.844	0.823
455.0	420.3	1408	1041	267.4	260.1	259.3	274.5	271.2	252.4	234.1	220.8	201.6	178.2	162.1	142.4	130.9	124.4	118.8	117.1	111.8	108.5	104.8	104.9	101.7	102.2	99.71	95.33	93.83	90.45	85.81	77.31	67.32	60.48	56.86	64.85	60.75	35.83	23.24	18.38	14.82	12.76	10.06	8.708	12.90	37.27	93.04	219.5	508.3	150.6	5.894	0.967	1.040	0.925	1.006	0.938	1.030	1.193	1.178	1.145	1.202	1.072	1.090	1.159	1.022	1.077	0.976	0.929	0.907	0.920	0.874	0.848	0.825	0.794	0.718	0.752	0.827	0.784
460.0	267.0	892.7	1575	367.8	243.6	252.2	263.9	261.3	245.5	226.6	210.3	189.7	170.1	155.8	136.1	124.0	116.7	111.7	107.7	106.2	102.3	96.84	97.05	96.94	94.36	94.82	90.69	88.33	86.24	83.31	74.31	65.37	58.27	49.81	50.93	62.18	46.34	26.32	19.37	15.90	12.92	10.96	9.216	8.197	12.89	24.74	57.30	307.7	472.2	109.9	2.733	1.073	1.010	0.965	1.021	0.934	1.151	1.106	1.182	1.246	0.962	0.994	1.070	1.001	0.944	0.923	0.926	0.895	0.846	0.786	0.736	0.849	0.806	0.838	0.776	0.843	0.799
465.0	239.4	455.3	1586	717.7	229.0	229.5	255.2	246.0	236.9	214.1	198.9	180.3	162.6	145.1	128.2	117.4	109.9	104.9	101.5	97.47	93.98	90.05	88.73	91.67	87.05	86.73	85.75	83.39	82.12	77.74	71.01	63.41	54.87	46.57	44.01	50.92	54.31	33.24	20.22	16.60	13.39	11.37	9.480	7.856	7.923	9.764	16.11	83.71	356.4	399.7	21.26	1.868	1.002	1.003	0.952	0.849	0.941	0.971	1.014	1.159	1.017	0.980	0.941	0.948	1.023	0.900	0.829	0.794	0.827	0.796	0.749	0.742	0.779	0.655	0.616	0.760	0.676
470.0	244.5	252.1	896.6	1374	357.5	217.6	230.8	226.6	216.3	196.5	183.7	169.0	149.9	133.6	116.1	107.3	99.58	94.91	92.61	86.97	83.57	81.16	80.53	81.44	78.58	78.86	77.47	76.46	74.66	72.89	65.58	59.35	51.51	45.45	39.64	38.75	44.71	41.99	27.07	17.35	14.31	11.95	9.856	8.512	7.196	6.358	7.200	21.85	95.30	255.6	309.7	103.7	7.368	1.134	0.961	0.888	0.972	0.964	1.015	1.025	1.021	0.989	1.005	0.828	0.844	0.725	0.779	0.830	0.828	0.704	0.672	0.675	0.742	0.681	0.686	0.669	0.729
475.0	302.3	198.2	371.1	1298	892.8	210.0	210.4	202.5	191.7	183.7	163.7	154.4	135.4	119.5	108.2	96.16	89.55	86.30	83.60	77.67	74.54	71.93	72.03	70.41	71.74	70.66	68.27	68.74	67.29	66.12	60.49	55.35	48.03	42.64	36.30	33.02	33.34	38.59	36.19	21.93	14.82	11.69	9.814	8.643	7.920	6.392	5.517	8.065	24.03	59.87	129.8	317.5	148.0	8.707	1.031	0.769	1.061	0.914	0.864	0.982	0.874	0.986	0.903	0.846	0.754	0.692	0.698	0.663	0.690	0.671	0.555	0.640	0.580	0.700	0.522	0.671	0.587
480.0	294.3	216.4	212.9	776.6	1380	299.2	192.5	191.1	182.4	171.9	156.9	147.0	130.0	112.5	99.22	89.41	81.87	79.20	76.06	72.42	70.73	67.40	65.78	65.01	65.96	64.95	63.01	63.81	62.70	60.46	56.20	50.71	45.62	39.91	35.04	30.44	27.77	30.13	36.59	28.28	15.87	12.19	10.24	8.814	7.934	6.793	5.606	5.249	8.270	15.95	32.36	155.5	334.5	120.8	3.912	0.957	1.135	0.844	0.877	0.877	0.819	0.837	0.905	0.770	0.750	0.723	0.536	0.649	0.654	0.558	0.608	0.574	0.517	0.569	0.567	0.663	0.567
485.0	232.1	257.4	178.5	374.6	1456	537.4	177.5	178.7	174.9	158.2	148.9	135.2	121.7	105.1	92.60	85.72	78.57	75.03	70.54	67.13	64.43	61.30	60.53	59.82	61.23	60.15	58.68	58.65	58.73	57.16	53.85	48.92	44.00	38.44	33.67	28.96	26.06	24.67	29.62	32.41	20.41	13.10	10.44	8.876	7.811	7.104	5.999	4.488	4.829	6.225	9.672	40.24	209.0	314.7	26.58	2.159	1.072	0.994	0.834	0.826	0.769	0.699	0.869	0.804	0.672	0.611	0.561	0.558	0.590	0.619	0.613	0.512	0.551	0.558	0.483	0.501	0.615
490.0	167.2	269.7	183.4	200.3	836.7	1224	285.2	165.7	161.4	148.5	140.2	127.0	111.6	98.32	87.20	78.53	71.72	66.97	64.15	60.51	57.41	55.78	54.19	54.68	55.07	54.77	54.53	53.99	53.72	52.79	50.19	45.01	40.46	35.86	31.46	27.77	24.56	22.07	22.30	27.16	26.67	17.15	11.55	9.452	7.858	7.054	6.379	5.339	4.344	4.192	4.331	11.03	53.85	164.3	225.4	108.1	9.337	1.090	0.885	0.800	0.730	0.706	0.772	0.709	0.618	0.654	0.616	0.569	0.584	0.580	0.582	0.480	0.561	0.548	0.484	0.476	0.547
495.0	129.3	232.8	218.8	145.8	318.1	1216	787.8	157.8	149.1	134.7	125.6	115.7	105.2	92.19	77.86	70.16	64.67	59.94	57.22	55.87	51.75	49.62	50.36	50.16	48.82	49.03	49.52	48.66	47.82	47.32	45.49	41.21	35.74	34.28	29.79	26.08	23.53	20.49	18.67	19.64	23.97	22.95	14.11	9.697	8.239	7.353	6.230	5.701	4.884	3.821	3.399	4.600	13.89	38.58	95.24	279.1	170.8	10.85	0.993	0.907	0.680	0.814	0.604	0.662	0.625	0.615	0.667	0.631	0.582	0.437	0.559	0.482	0.489	0.497	0.420	0.452	0.493
500.0	111.5	176.0	255.3	133.2	163.6	758.1	1291	229.9	133.1	126.8	119.9	107.1	94.65	82.52	72.80	65.21	59.84	55.20	54.03	50.86	45.60	45.86	46.13	44.32	45.03	44.23	44.58	44.55	44.32	44.04	41.82	37.66	33.39	31.40	27.24	24.82	22.22	20.09	17.51	16.77	18.59	23.92	17.99	11.07	8.244	7.138	6.306	5.435	5.074	4.087	3.110	3.161	4.937	10.35	23.63	125.0	309.3	126.3	4.616	1.021	0.661	0.695	0.654	0.609	0.528	0.498	0.593	0.578	0.474	0.518	0.490	0.496	0.412	0.403	0.361	0.400	0.384
505.0	108.3	133.9	242.8	156.5	126.5	348.7	1415	392.9	124.6	117.8	109.3	99.52	88.21	78.25	67.13	61.38	55.84	49.03	49.10	45.95	42.20	41.92	42.15	40.69	41.21	41.07	40.61	40.97	40.46	40.09	38.64	35.40	31.42	28.67	25.46	23.07	20.14	18.76	16.32	14.91	14.52	19.00	20.49	13.42	8.461	7.261	6.152	5.491	4.902	4.261	3.333	2.956	2.960	3.949	6.904	31.72	167.7	284.2	29.01	2.064	0.749	0.683	0.647	0.578	0.466	0.532	0.572	0.540	0.455	0.484	0.464	0.408	0.439	0.419	0.448	0.422	0.325
510.0	85.80	100.4	163.2	197.4	111.6	163.4	814.8	1131	202.6	106.4	97.71	90.48	79.25	69.79	60.55	52.60	49.05	43.79	42.67	40.71	37.93	37.67	37.00	36.28	35.99	35.98	35.47	35.97	35.70	34.82	34.04	31.38	28.33	26.02	23.24	20.69	18.53	16.87	14.90	13.71	12.19	13.33	17.21	16.95	10.88	7.307	5.986	5.001	4.439	4.106	3.664	3.030	2.538	2.564	2.995	8.379	41.58	133.1	193.9	103.0	9.047	0.696	0.643	0.513	0.431	0.453	0.488	0.395	0.459	0.446	0.418	0.446	0.431	0.338	0.382	0.408	0.371
515.0	73.84	81.89	104.1	195.9	133.1	109.0	289.1	1249	652.3	99.49	85.71	79.17	69.48	60.10	53.12	46.91	41.92	38.43	37.10	34.60	33.95	32.32	31.20	31.88	31.46	31.32	30.76	31.33	30.60	31.59	29.20	27.74	25.24	22.38	20.62	18.52	16.91	14.62	13.36	11.93	10.82	10.91	11.37	15.40	14.54	8.810	6.039	4.976	4.170	3.989	3.656	3.404	2.453	2.383	2.046	3.217	10.61	30.94	66.18	198.2	139.3	10.48	0.687	0.523	0.408	0.461	0.450	0.377	0.420	0.398	0.346	0.345	0.400	0.336	0.309	0.309	0.344
520.0	65.52	76.32	82.76	164.9	157.5	95.13	133.7	786.5	1204	152.0	76.96	71.14	61.81	53.70	47.31	42.85	37.54	34.41	34.41	31.90	29.67	28.76	27.83	28.40	27.41	27.96	27.37	27.47	27.87	27.31	26.21	24.92	22.64	20.63	18.41	17.23	15.64	13.65	12.01	11.12	9.924	9.454	8.935	10.99	14.76	11.27	6.326	4.787	4.043	3.836	3.179	3.287	3.139	2.265	1.991	2.054	3.502	8.021	16.17	81.59	214.3	98.43	4.459	0.528	0.452	0.456	0.419	0.390	0.320	0.389	0.342	0.366	0.400	0.325	0.276	0.373	0.362
525.0	59.04	69.66	70.80	117.5	186.9	91.85	91.62	330.1	1429	284.4	73.14	63.64	56.55	50.61	42.51	39.10	33.77	31.73	30.89	28.10	27.34	26.06	24.90	25.27	25.46	24.53	24.40	25.30	25.29	24.25	23.75	21.86	20.75	18.50	16.71	15.14	14.37	12.74	11.26	10.33	9.593	8.846	7.814	8.499	11.96	12.70	8.336	5.087	4.000	3.650	3.044	2.845	3.173	2.465	1.836	1.638	2.036	2.841	4.580	20.22	105.0	199.8	29.38	1.865	0.448	0.496	0.346	0.407	0.278	0.376	0.248	0.277	0.287	0.281	0.245	0.274	0.301
530.0	54.54	58.89	57.60	76.82	167.1	127.6	73.42	133.1	862.7	1048	132.7	55.86	51.35	42.58	37.87	33.58	30.91	28.44	26.47	25.10	23.82	22.85	21.70	22.31	22.03	21.48	21.52	21.36	21.81	21.31	20.76	19.38	18.25	16.14	14.63	13.44	12.46	11.20	9.927	9.488	8.423	7.618	7.061	6.852	7.948	10.61	10.24	6.420	3.838	3.221	2.895	2.543	2.455	2.561	2.063	1.650	1.512	1.578	1.923	5.330	25.83	88.21	139.1	77.60	7.995	0.515	0.352	0.326	0.314	0.296	0.256	0.294	0.231	0.251	0.257	0.251	0.268
535.0	48.10	53.34	48.21	52.90	106.3	155.5	72.03	76.79	271.8	1226	530.1	52.99	43.84	36.02	32.37	27.81	25.17	24.09	21.93	21.70	20.18	19.42	18.65	18.67	18.92	18.26	17.42	18.58	17.96	18.25	18.14	15.79	15.66	14.00	12.84	11.97	10.45	9.673	8.446	8.119	7.528	7.104	6.050	5.531	5.906	7.021	9.234	8.550	4.624	3.091	2.771	2.334	2.072	2.124	2.422	1.823	1.288	1.215	1.343	2.084	6.534	20.42	45.39	137.4	98.97	7.232	0.451	0.322	0.309	0.232	0.306	0.284	0.281	0.210	0.275	0.269	0.248
540.0	40.22	49.99	42.58	44.57	67.64	154.0	90.68	59.27	104.7	767.6	1088	82.66	37.58	32.99	30.59	25.53	22.09	21.00	19.42	18.56	17.96	16.84	15.97	16.76	16.49	15.72	15.98	16.09	16.45	16.48	15.64	14.26	14.04	12.49	11.12	10.71	9.293	8.576	7.794	7.296	6.639	6.577	5.579	5.075	5.124	5.006	6.818	8.940	5.854	3.367	2.499	2.209	1.905	1.945	1.981	2.044	1.397	1.126	1.116	1.177	2.175	5.147	10.87	54.33	148.5	31.63	2.933	0.360	0.315	0.202	0.284	0.243	0.212	0.178	0.212	0.240	0.205
545.0	43.58	42.18	40.23	37.35	47.67	124.2	122.0	53.15	64.34	302.5	1345	196.2	34.13	30.89	25.73	22.63	21.53	18.33	17.12	16.74	15.24	14.95	15.05	14.67	14.54	14.29	13.99	13.89	14.43	14.70	13.80	12.78	12.01	10.40	9.956	9.180	8.609	7.774	6.966	6.396	6.015	5.674	4.935	4.751	4.584	4.031	4.897	6.729	6.726	4.104	2.473	2.049	1.867	1.759	1.596	1.782	1.752	1.145	0.970	0.944	1.122	1.689	3.014	13.35	69.43	127.0	27.43	1.304	0.269	0.271	0.229	0.200	0.185	0.137	0.205	0.171	0.163
550.0	37.73	38.36	37.77	30.37	35.72	72.25	141.1	64.75	45.28	103.3	791.0	844.8	69.35	26.02	22.50	19.15	17.32	15.57	14.85	13.44	12.92	12.61	12.51	12.26	11.93	11.56	11.52	11.84	12.17	12.21	11.59	10.38	9.951	8.929	8.575	7.472	7.097	6.544	6.029	5.452	5.085	4.698	4.231	4.179	3.896	3.531	3.644	4.291	5.822	5.075	3.012	1.947	1.667	1.469	1.404	1.399	1.585	1.495	1.006	0.871	0.784	0.900	1.124	3.372	16.69	56.00	91.86	51.78	5.890	0.313	0.211	0.180	0.169	0.181	0.180	0.151	0.205
555.0	30.84	30.32	31.07	26.27	27.80	40.12	112.2	93.95	42.02	49.05	233.1	1076	325.6	22.00	18.54	16.60	14.72	12.48	12.26	11.47	10.53	10.02	9.542	9.623	9.833	9.381	9.142	9.417	9.539	9.568	9.238	8.469	8.351	7.318	6.531	6.112	5.752	5.361	4.780	4.407	4.125	3.708	3.492	3.340	3.079	3.033	2.916	2.965	3.661	4.995	3.815	2.390	1.414	1.205	1.261	1.068	0.998	1.513	1.358	0.853	0.652	0.625	0.619	1.097	4.112	12.86	28.68	83.84	61.43	5.192	0.235	0.169	0.170	0.147	0.136	0.187	0.161
560.0	34.84	33.18	27.31	23.41	23.50	28.28	72.49	122.6	42.11	35.71	76.86	672.6	773.9	37.63	15.98	13.47	12.46	11.33	9.991	9.521	9.024	8.379	8.573	8.141	8.086	7.910	7.766	7.543	8.478	8.266	8.171	7.257	6.888	6.140	5.862	5.136	5.108	4.537	4.106	4.006	3.558	3.217	2.992	2.990	2.768	2.544	2.408	2.196	2.480	3.516	4.070	2.655	1.468	0.978	1.090	1.105	0.821	1.102	1.399	1.051	0.692	0.524	0.575	0.665	1.219	3.173	6.806	32.06	88.84	29.82	1.892	0.210	0.145	0.141	0.126	0.128	0.117
565.0	30.77	32.78	28.36	19.76	22.66	22.13	41.18	124.6	53.09	29.77	38.77	256.0	1041	121.3	15.16	11.54	10.45	9.367	8.770	8.055	7.386	7.002	7.157	6.711	6.907	7.021	6.441	6.641	6.947	6.924	6.479	6.266	5.801	5.381	4.850	4.318	4.505	3.944	3.558	3.304	3.019	2.701	2.660	2.450	2.285	2.210	2.139	1.886	1.871	2.192	3.285	3.081	1.655	1.131	1.024	0.841	0.679	0.839	1.168	1.265	0.719	0.448	0.472	0.468	0.573	0.966	1.815	7.776	40.47	76.45	22.42	0.746	0.145	0.122	0.109	0.105	0.099
570.0	30.67	28.95	23.35	17.40	17.71	18.14	24.33	85.83	88.32	31.05	27.37	78.62	640.6	568.9	30.52	9.954	8.315	7.444	7.326	6.776	6.152	5.770	5.806	5.607	5.741	5.463	5.174	5.350	5.550	5.293	5.407	4.835	4.568	4.246	3.891	3.596	3.590	3.269	3.051	2.619	2.495	2.326	2.130	2.077	1.894	1.740	1.687	1.650	1.523	1.503	2.117	2.781	2.166	1.320	0.887	0.707	0.678	0.621	0.754	0.925	1.055	0.679	0.432	0.417	0.356	0.485	0.663	1.996	9.725	32.66	53.87	30.58	3.385	0.177	0.117	0.133	0.089
575.0	26.62	26.54	21.46	17.44	15.78	15.37	15.52	40.94	107.3	44.99	22.62	32.35	182.9	776.7	122.2	8.193	6.560	6.472	5.637	5.587	4.700	4.852	4.285	4.439	4.806	4.184	4.371	4.137	4.514	4.165	4.349	3.872	3.487	3.502	3.289	2.962	3.054	2.329	2.407	2.182	2.161	1.854	1.705	1.582	1.466	1.433	1.274	1.160	1.207	1.170	1.164	1.813	2.311	1.812	0.925	0.722	0.628	0.554	0.476	0.598	0.846	1.025	0.471	0.370	0.287	0.350	0.345	0.644	2.358	7.494	16.56	49.57	29.72	2.745	0.177	0.102	0.115
580.0	32.30	26.23	20.79	17.07	13.49	13.97	13.16	25.60	88.80	69.29	21.94	21.82	55.99	501.0	473.2	14.42	6.008	5.658	5.205	4.070	3.865	4.217	3.965	3.891	3.995	3.529	3.772	3.687	3.633	3.605	3.333	3.257	2.846	3.029	2.807	2.572	2.376	2.158	1.956	1.834	1.792	1.518	1.442	1.388	1.304	1.299	1.133	1.054	1.034	0.937	0.933	1.188	1.699	1.930	1.249	0.730	0.574	0.409	0.417	0.392	0.519	0.886	0.853	0.369	0.281	0.287	0.222	0.311	0.669	1.848	3.988	19.42	50.24	22.31	1.234	0.149	0.150
585.0	35.34	23.45	19.04	13.28	13.01	11.49	13.59	18.62	57.28	93.44	26.61	19.41	23.93	188.4	696.6	64.33	5.885	4.637	4.164	3.872	3.513	3.570	3.460	2.887	3.241	3.259	3.024	3.215	3.066	2.928	2.829	2.765	2.653	2.635	2.403	2.218	2.080	1.881	1.811	1.497	1.452	1.340	1.276	1.270	1.211	1.047	1.018	1.024	0.871	0.832	0.741	0.801	1.240	1.672	1.496	0.850	0.562	0.419	0.393	0.408	0.398	0.489	0.921	0.602	0.293	0.257	0.194	0.255	0.352	0.593	1.038	4.739	23.47	45.77	15.15	0.515	0.105
590.0	33.81	22.44	17.38	12.84	11.73	11.26	11.57	13.05	28.55	89.39	44.74	16.70	16.43	53.35	436.1	334.7	12.90	3.765	3.760	3.110	2.996	3.023	3.019	2.555	2.696	2.550	2.334	2.642	2.515	2.443	2.531	2.420	2.188	1.982	1.929	1.829	1.608	1.555	1.419	1.284	1.187	1.245	1.100	1.003	0.997	0.914	0.845	0.814	0.742	0.669	0.628	0.557	0.723	1.070	1.471	1.062	0.627	0.414	0.363	0.327	0.302	0.349	0.582	0.681	0.490	0.254	0.233	0.204	0.219	0.275	0.386	1.231	5.614	19.38	30.01	18.29	2.135
595.0	21.49	21.72	17.72	11.26	9.884	8.543	12.17	11.57	15.99	56.50	73.70	17.70	14.24	19.68	122.9	479.8	78.04	3.414	3.083	2.816	2.726	2.334	2.424	2.100	1.919	1.994	1.956	1.995	2.045	2.140	2.197	1.821	1.822	1.640	1.484	1.361	1.317	1.217	1.177	1.137	0.916	0.992	0.870	0.759	0.734	0.680	0.599	0.639	0.570	0.575	0.487	0.457	0.494	0.617	0.981	1.063	0.809	0.404	0.305	0.334	0.256	0.294	0.301	0.424	0.746	0.409	0.315	0.189	0.188	0.199	0.239	0.363	1.364	4.467	9.563	28.32	21.82
600.0	20.47	19.55	15.42	11.46	10.02	9.863	10.85	11.58	12.53	31.38	80.65	27.67	13.37	11.89	35.87	328.3	266.6	6.079	2.539	2.367	2.250	1.926	1.921	1.747	1.652	1.763	1.713	1.606	1.549	1.815	1.804	1.582	1.355	1.116	1.185	1.253	1.127	1.067	0.990	0.944	0.749	0.831	0.692	0.780	0.685	0.589	0.564	0.559	0.513	0.522	0.431	0.380	0.424	0.396	0.594	1.000	0.974	0.564	0.308	0.281	0.194	0.280	0.269	0.317	0.576	0.665	0.328	0.242	0.157	0.171	0.172	0.202	0.382	1.130	2.298	10.59	30.02
605.0	16.49	16.78	16.17	11.71	11.11	9.443	9.059	11.29	12.95	19.26	69.78	44.05	13.35	10.64	14.34	125.4	407.5	33.30	2.357	2.331	1.651	1.388	1.726	1.471	1.548	1.602	1.486	1.363	1.243	1.415	1.436	1.494	1.168	1.035	1.107	1.087	0.945	1.080	0.930	0.810	0.705	0.724	0.651	0.538	0.560	0.578	0.488	0.518	0.501	0.446	0.338	0.383	0.371	0.334	0.395	0.763	0.939	0.697	0.350	0.214	0.171	0.223	0.195	0.295	0.313	0.572	0.519	0.231	0.154	0.154	0.158	0.153	0.222	0.345	0.637	2.566	13.25
610.0	23.01	19.44	16.04	12.56	10.19	10.16	11.47	13.10	14.78	17.66	45.94	65.97	21.82	13.17	11.63	36.19	272.2	173.8	5.795	1.934	1.666	1.353	1.393	1.310	1.242	1.225	1.137	1.149	1.179	1.144	1.134	1.136	0.937	0.898	0.952	0.767	0.717	0.802	0.752	0.651	0.550	0.591	0.480	0.510	0.478	0.527	0.450	0.461	0.436	0.357	0.285	0.295	0.309	0.307	0.269	0.414	0.677	0.758	0.503	0.266	0.212	0.179	0.233	0.235	0.220	0.309	0.451	0.391	0.258	0.174	0.157	0.129	0.154	0.173	0.241	0.692	3.195
615.0	22.59	21.50	16.84	12.59	9.723	11.04	10.93	13.04	12.79	18.24	27.97	63.72	36.16	15.52	12.42	15.29	81.94	302.8	50.18	1.502	1.363	1.257	1.130	0.900	0.937	1.051	0.850	0.988	0.905	0.843	0.860	0.942	0.722	0.694	0.714	0.680	0.746	0.661	0.662	0.554	0.476	0.431	0.460	0.449	0.388	0.462	0.384	0.331	0.290	0.306	0.232	0.236	0.213	0.235	0.196	0.257	0.408	0.560	0.578	0.383	0.232	0.187	0.226	0.185	0.145	0.175	0.226	0.416	0.430	0.209	0.177	0.122	0.137	0.133	0.162	0.235	0.816
620.0	25.12	24.04	16.61	13.64	10.17	10.52	10.37	11.98	12.75	15.42	22.28	48.84	49.10	16.83	11.42	10.29	25.18	217.5	165.6	2.827	1.127	1.252	1.045	0.873	0.931	0.795	0.752	0.898	0.756	0.615	0.806	0.752	0.715	0.640	0.541	0.572	0.608	0.582	0.555	0.518	0.349	0.353	0.439	0.334	0.316	0.356	0.295	0.283	0.255	0.241	0.208	0.233	0.186	0.235	0.180	0.225	0.215	0.392	0.579	0.451	0.346	0.193	0.158	0.194	0.159	0.131	0.174	0.272	0.507	0.304	0.159	0.172	0.130	0.130	0.147	0.193	0.270
625.0	20.62	17.05	13.54	12.14	8.959	9.462	10.36	12.13	13.40	16.04	18.72	31.89	58.15	20.57	11.59	8.892	10.88	90.76	266.1	16.80	1.091	1.012	0.948	0.793	0.781	0.631	0.690	0.758	0.640	0.594	0.650	0.605	0.624	0.494	0.456	0.486	0.486	0.425	0.407	0.549	0.379	0.328	0.319	0.301	0.239	0.310	0.321	0.250	0.196	0.244	0.176	0.201	0.140	0.184	0.182	0.163	0.186	0.197	0.450	0.420	0.355	0.209	0.156	0.136	0.194	0.160	0.200	0.206	0.394	0.462	0.192	0.178	0.132	0.138	0.119	0.140	0.136
630.0	22.75	20.46	17.87	11.82	10.62	10.24	10.08	12.74	12.83	13.72	18.67	23.63	48.57	32.35	12.73	8.400	7.656	25.78	192.2	118.2	2.725	0.815	0.793	0.677	0.657	0.590	0.608	0.669	0.603	0.601	0.527	0.503	0.530	0.463	0.393	0.438	0.376	0.355	0.331	0.403	0.303	0.321	0.307	0.277	0.272	0.270	0.270	0.225	0.206	0.183	0.154	0.182	0.136	0.161	0.158	0.174	0.141	0.162	0.248	0.361	0.345	0.284	0.167	0.120	0.152	0.149	0.154	0.187	0.233	0.351	0.342	0.217	0.153	0.135	0.117	0.145	0.103
635.0	23.46	24.05	17.87	15.38	10.05	10.04	10.39	12.41	11.37	12.78	16.42	19.48	30.49	43.56	17.24	8.511	6.876	9.118	57.73	217.5	27.98	0.912	0.603	0.547	0.533	0.502	0.469	0.474	0.484	0.531	0.534	0.388	0.429	0.435	0.330	0.318	0.324	0.279	0.313	0.235	0.334	0.271	0.219	0.232	0.204	0.209	0.229	0.181	0.202	0.158	0.160	0.160	0.175	0.160	0.144	0.156	0.132	0.144	0.196	0.228	0.349	0.349	0.274	0.172	0.141	0.132	0.145	0.163	0.254	0.212	0.275	0.374	0.220	0.129	0.111	0.100	0.084
640.0	27.64	23.06	16.58	12.24	11.82	9.252	10.32	11.63	11.93	12.67	17.09	18.38	22.22	43.07	21.95	8.859	6.755	5.319	15.98	166.6	71.28	1.448	0.656	0.526	0.547	0.394	0.440	0.454	0.423	0.402	0.364	0.358	0.311	0.332	0.321	0.267	0.337	0.223	0.250	0.215	0.244	0.291	0.240	0.202	0.175	0.217	0.173	0.190	0.152	0.150	0.136	0.136	0.168	0.110	0.145	0.106	0.145	0.179	0.148	0.178	0.267	0.302	0.270	0.171	0.112	0.104	0.150	0.146	0.176	0.148	0.219	0.390	0.304	0.170	0.122	0.103	0.083
645.0	21.57	28.01	17.93	12.67	10.28	7.534	10.39	11.15	11.86	13.00	15.99	18.44	19.20	35.19	29.37	9.215	6.472	4.284	5.386	73.81	169.9	9.173	0.617	0.529	0.456	0.292	0.377	0.419	0.417	0.422	0.338	0.332	0.291	0.262	0.249	0.276	0.293	0.209	0.227	0.161	0.185	0.306	0.267	0.232	0.180	0.236	0.156	0.143	0.168	0.133	0.101	0.115	0.130	0.133	0.106	0.118	0.127	0.148	0.132	0.135	0.196	0.265	0.225	0.193	0.141	0.128	0.137	0.158	0.179	0.155	0.185	0.259	0.349	0.206	0.117	0.110	0.104
650.0	25.67	24.76	17.37	11.99	9.489	7.643	9.562	10.66	10.65	12.42	15.45	17.45	17.14	24.53	35.05	11.65	6.314	4.457	3.054	21.88	176.6	45.69	0.691	0.426	0.533	0.339	0.393	0.406	0.289	0.419	0.387	0.284	0.250	0.263	0.256	0.209	0.275	0.180	0.189	0.128	0.172	0.216	0.329	0.198	0.136	0.161	0.157	0.141	0.153	0.121	0.106	0.125	0.096	0.093	0.089	0.110	0.106	0.154	0.118	0.121	0.145	0.194	0.231	0.158	0.171	0.148	0.121	0.154	0.130	0.151	0.115	0.182	0.248	0.316	0.090	0.072	0.084
