Sample:	'1
File name:	t2025061601ÂÀ¼ÒÕ¢ 5±¶.FD3
Run date:	'10:16:53, 06/18/2025
Operator:	Administrator
Comment:	'

Instrument
Model:	F-2700 FL Spectrophotometer
Serial number:	23B8-004
ROM Version:	4J14000 07

Instrument parameters
Measurement type:	3-D scan
Data mode:	Fluorescence
EX  Start WL:	220.0 nm
EX  End WL:	600.0 nm
EX Sampling interval:	5.0 nm
EM  Start WL:	230.0 nm
EM  End WL:	650.0 nm
EM Sampling interval:	5.0 nm
Scan speed:	12000 nm/min
EX Slit:	5.0 nm
EM Slit:	5.0 nm
PMT Voltage:	700 V
Response:	Auto 
Corrected spectra:	Off
Contour interval:	50.000

Peak integration
Integration method:	Rectangular
Sensitivity:	1
Threshold:	1.000

Peaks
No.	ApexEX/EM(nm)	Height(Data)
1	225.0/640.0	79.87
2	230.0/340.0	2703
3	230.0/505.0	237.5
4	235.0/515.0	204.6
5	240.0/265.0	441.4
6	240.0/525.0	177.7
7	245.0/270.0	457.5
8	245.0/540.0	156.3
9	250.0/275.0	582.0
10	250.0/550.0	126.9
11	255.0/285.0	593.5
12	255.0/565.0	112.9
13	260.0/290.0	530.6
14	260.0/575.0	96.06
15	265.0/590.0	80.15
16	275.0/310.0	1947
17	275.0/615.0	133.0
18	280.0/315.0	2032
19	280.0/625.0	116.7
20	285.0/320.0	1936
21	285.0/640.0	95.88
22	320.0/360.0	312.7
23	325.0/370.0	252.4
24	330.0/375.0	230.2
25	335.0/380.0	223.2
26	345.0/395.0	167.6
27	350.0/400.0	173.0
28	355.0/405.0	156.9
29	365.0/420.0	127.6
30	370.0/425.0	113.2
31	375.0/435.0	89.78
32	380.0/440.0	83.26
33	395.0/460.0	49.77
34	400.0/465.0	40.97
35	410.0/480.0	27.63
36	415.0/485.0	23.79
37	425.0/500.0	17.74
38	430.0/505.0	15.09
39	440.0/520.0	11.67
40	455.0/540.0	6.349
41	460.0/545.0	5.753
42	470.0/560.0	3.418
43	475.0/340.0	7.589
44	480.0/265.0	2.249
45	505.0/275.0	3.336
46	510.0/280.0	3.498
47	515.0/285.0	3.571
48	525.0/290.0	3.212
49	550.0/305.0	8.258
50	560.0/310.0	10.12
51	570.0/315.0	10.39
52	575.0/290.0	54.29
53	575.0/320.0	10.82
54	585.0/325.0	9.765

Data points
	220.0	225.0	230.0	235.0	240.0	245.0	250.0	255.0	260.0	265.0	270.0	275.0	280.0	285.0	290.0	295.0	300.0	305.0	310.0	315.0	320.0	325.0	330.0	335.0	340.0	345.0	350.0	355.0	360.0	365.0	370.0	375.0	380.0	385.0	390.0	395.0	400.0	405.0	410.0	415.0	420.0	425.0	430.0	435.0	440.0	445.0	450.0	455.0	460.0	465.0	470.0	475.0	480.0	485.0	490.0	495.0	500.0	505.0	510.0	515.0	520.0	525.0	530.0	535.0	540.0	545.0	550.0	555.0	560.0	565.0	570.0	575.0	580.0	585.0	590.0	595.0	600.0
230.0	148.0	2453	3898	784.4	25.36	7.374	5.633	4.628	4.175	3.631	3.155	2.835	2.622	2.372	1.860	1.723	1.583	1.189	1.204	1.130	0.954	0.808	0.808	0.748	0.723	0.661	0.599	0.657	0.680	0.595	0.556	0.524	0.436	0.457	0.436	0.430	0.402	0.398	0.404	0.415	0.636	0.836	0.703	0.425	0.342	0.481	3.153	9.930	12.48	6.926	1.905	0.436	0.275	0.252	0.235	0.265	0.256	0.240	0.249	0.271	0.246	0.275	0.231	0.242	0.258	0.257	0.241	0.249	0.241	0.235	0.230	0.245	0.229	0.243	0.247	0.249	0.241
235.0	201.5	706.7	2852	3294	528.2	35.90	7.531	5.304	3.815	3.907	3.368	3.188	3.184	2.584	2.380	1.674	1.707	1.314	1.288	1.046	1.032	0.850	0.826	0.770	0.785	0.692	0.671	0.792	0.713	0.582	0.574	0.571	0.415	0.477	0.390	0.414	0.394	0.385	0.384	0.339	0.406	0.554	0.717	0.866	0.700	0.514	0.969	2.669	5.571	8.627	10.61	9.313	3.464	0.709	0.237	0.249	0.274	0.282	0.265	0.278	0.240	0.243	0.242	0.201	0.256	0.249	0.245	0.220	0.235	0.243	0.218	0.230	0.227	0.273	0.234	0.279	0.274
240.0	282.1	263.1	955.8	3367	2946	382.9	17.72	6.568	4.737	4.358	4.334	3.260	2.986	2.409	2.083	2.005	1.632	1.275	1.154	1.051	0.979	0.960	0.969	0.670	0.865	0.716	0.684	0.781	0.597	0.665	0.625	0.531	0.468	0.518	0.504	0.425	0.385	0.350	0.384	0.401	0.396	0.408	0.579	0.711	1.029	0.943	0.697	0.990	1.528	2.861	7.110	14.59	14.46	8.365	2.727	0.477	0.248	0.291	0.275	0.252	0.244	0.249	0.263	0.247	0.300	0.210	0.316	0.224	0.258	0.221	0.282	0.219	0.252	0.329	0.242	0.264	0.309
245.0	235.1	320.1	291.5	1371	3938	2637	272.1	9.658	6.055	4.505	5.085	3.982	3.557	2.690	2.099	2.150	1.652	1.374	1.322	0.885	0.946	0.920	0.878	0.711	0.730	0.708	0.688	0.768	0.628	0.605	0.686	0.483	0.486	0.517	0.445	0.423	0.483	0.465	0.408	0.403	0.381	0.366	0.420	0.460	0.679	1.019	1.256	0.879	0.639	0.814	1.983	5.798	13.00	18.29	16.41	6.070	1.289	0.390	0.285	0.244	0.275	0.274	0.268	0.280	0.297	0.281	0.254	0.237	0.213	0.275	0.241	0.259	0.228	0.320	0.286	0.227	0.324
250.0	94.75	251.2	324.0	403.4	1463	3497	3642	863.2	37.45	6.574	5.807	4.646	4.257	2.963	2.409	2.160	1.973	1.585	1.363	1.109	1.013	1.020	0.878	0.790	0.741	0.774	0.732	0.689	0.645	0.627	0.643	0.458	0.521	0.529	0.465	0.401	0.476	0.415	0.396	0.405	0.392	0.379	0.397	0.384	0.481	0.602	0.742	1.086	1.054	0.927	0.887	1.603	3.404	6.723	12.15	15.70	17.58	14.63	6.262	1.303	0.371	0.269	0.261	0.301	0.285	0.269	0.271	0.225	0.226	0.312	0.268	0.237	0.256	0.284	0.261	0.268	0.332
255.0	46.82	89.89	278.3	386.1	406.0	990.8	3873	4884	296.3	32.82	7.616	6.140	4.935	3.499	2.719	2.113	1.876	1.774	1.646	1.186	1.164	0.932	0.999	0.780	0.805	0.801	0.734	0.756	0.789	0.766	0.662	0.608	0.628	0.578	0.466	0.408	0.475	0.433	0.378	0.361	0.400	0.465	0.375	0.380	0.447	0.393	0.429	0.499	0.665	1.169	1.599	1.490	1.227	1.780	3.040	4.189	7.990	19.72	28.23	22.35	8.496	1.478	0.338	0.411	0.283	0.305	0.301	0.258	0.310	0.272	0.324	0.247	0.302	0.235	0.292	0.281	0.279
260.0	39.96	42.26	124.3	369.1	340.1	283.9	1356	5199	4700	242.0	16.63	7.666	5.832	3.969	3.180	2.673	2.240	1.856	1.501	1.456	1.347	0.978	0.963	0.975	0.953	0.812	0.756	0.858	0.773	0.642	0.698	0.583	0.623	0.542	0.473	0.591	0.483	0.404	0.445	0.378	0.393	0.413	0.431	0.380	0.408	0.354	0.393	0.346	0.386	0.594	1.199	2.106	1.806	1.095	1.059	1.246	2.238	5.722	14.86	29.11	30.59	19.50	6.076	0.853	0.333	0.329	0.272	0.285	0.289	0.262	0.285	0.256	0.303	0.287	0.308	0.293	0.299
265.0	35.71	30.83	45.49	192.8	441.4	248.4	363.7	2111	6690	2037	176.1	10.93	6.952	4.937	3.851	2.730	2.615	2.002	1.940	1.674	1.519	1.261	0.994	1.178	0.966	0.911	0.740	0.741	0.840	0.727	0.617	0.593	0.608	0.484	0.590	0.473	0.557	0.444	0.361	0.334	0.427	0.374	0.441	0.376	0.375	0.363	0.379	0.288	0.313	0.332	0.560	1.260	2.249	2.108	1.466	0.896	0.851	1.718	3.849	9.775	23.21	39.57	30.74	18.54	2.873	0.439	0.342	0.358	0.330	0.299	0.297	0.304	0.344	0.346	0.312	0.227	0.330
270.0	41.52	35.67	33.27	75.60	268.2	457.5	308.5	547.9	2463	5298	4837	727.6	35.41	7.337	5.177	3.789	3.286	2.540	1.774	1.753	1.452	1.293	1.211	1.208	0.909	0.923	0.782	0.798	0.872	0.818	0.704	0.670	0.627	0.631	0.644	0.541	0.523	0.481	0.452	0.407	0.462	0.385	0.449	0.431	0.341	0.482	0.348	0.359	0.306	0.321	0.352	0.561	1.062	1.417	2.207	2.195	1.858	1.252	1.363	2.582	5.883	12.90	23.87	41.41	36.20	31.63	11.87	2.825	0.448	0.335	0.327	0.331	0.339	0.318	0.321	0.297	0.317
275.0	69.97	56.59	39.72	50.88	119.2	290.3	582.0	338.5	596.7	1458	5662	9224	974.6	29.02	7.880	5.307	4.008	2.834	2.585	2.028	1.682	1.566	1.372	1.177	1.107	0.968	0.908	0.856	1.023	0.889	0.776	0.727	0.680	0.772	0.692	0.550	0.597	0.534	0.474	0.463	0.455	0.438	0.466	0.465	0.510	0.500	0.429	0.442	0.402	0.321	0.371	0.417	0.572	0.742	1.005	1.506	2.790	3.336	2.239	1.162	1.716	3.193	5.722	10.20	14.87	36.79	59.48	31.51	17.49	2.530	0.453	0.413	0.346	0.358	0.370	0.394	0.371
280.0	96.14	86.74	62.26	55.84	80.91	156.4	452.0	568.2	247.7	372.5	1833	9558	7981	142.5	14.65	6.844	5.089	3.660	3.124	1.885	2.044	1.831	1.562	1.163	1.314	1.058	0.944	0.880	1.041	0.874	0.900	0.923	0.676	0.864	0.735	0.727	0.688	0.630	0.597	0.516	0.599	0.476	0.502	0.524	0.525	0.626	0.504	0.528	0.377	0.351	0.349	0.451	0.529	0.569	0.661	0.804	1.459	2.719	3.498	2.765	1.456	1.187	1.700	2.706	3.785	10.08	26.63	52.61	68.65	29.05	12.28	1.411	0.428	0.380	0.307	0.397	0.412
285.0	144.6	123.5	86.11	63.48	70.28	106.7	224.2	593.5	327.6	152.7	469.6	3416	9999.9	5351	103.3	10.13	6.577	4.328	3.476	2.508	1.994	1.781	1.735	1.203	1.143	1.182	0.972	1.014	1.057	0.954	0.807	0.826	0.760	0.941	0.778	0.731	0.707	0.752	0.670	0.540	0.634	0.558	0.615	0.582	0.608	0.619	0.565	0.687	0.503	0.451	0.377	0.482	0.432	0.563	0.622	0.710	0.911	1.252	2.205	3.571	3.512	1.711	0.978	1.068	1.324	2.681	6.590	16.17	40.88	68.11	70.47	25.30	7.018	0.737	0.368	0.469	0.397
290.0	190.9	168.9	129.0	76.31	72.37	87.82	120.2	260.3	530.6	424.8	219.4	852.9	3396	7076	5568	426.9	26.09	6.810	4.446	3.244	2.724	2.151	1.749	1.544	1.355	1.363	1.137	1.111	1.117	1.010	0.936	0.865	0.872	1.019	0.863	0.965	0.969	0.927	0.817	0.677	0.678	0.662	0.724	0.666	0.723	0.778	0.793	0.723	0.664	0.564	0.487	0.517	0.470	0.543	0.640	0.610	0.758	0.800	1.022	1.564	2.414	3.212	3.071	2.239	1.194	1.242	2.114	4.227	9.972	20.45	37.53	54.29	48.55	51.98	17.36	6.984	0.941
295.0	249.4	244.9	189.1	121.4	95.33	101.7	108.0	146.6	261.8	660.3	532.2	341.5	876.3	1840	5641	6494	616.1	24.84	7.239	4.170	3.631	2.859	2.355	1.974	1.784	1.390	1.358	1.196	1.240	1.008	1.047	1.023	0.918	1.050	0.946	1.082	1.033	1.105	0.923	0.809	0.701	0.766	0.805	0.808	0.869	0.965	0.853	0.835	0.817	0.595	0.612	0.681	0.654	0.549	0.673	0.627	0.733	0.776	0.833	0.919	1.188	1.540	2.305	3.870	3.892	2.386	1.455	1.782	3.146	5.349	9.172	12.95	16.62	44.85	82.60	85.32	28.02
300.0	368.7	380.4	301.2	200.3	161.9	173.1	189.2	236.5	291.4	573.9	1015	628.5	522.6	656.3	1836	7590	5693	88.69	15.63	6.332	4.199	3.217	2.535	2.234	1.893	1.692	1.351	1.096	1.409	1.139	1.146	0.905	0.864	1.198	1.182	1.273	1.270	1.293	1.016	0.912	0.946	1.019	0.872	0.959	1.251	1.208	1.014	1.219	1.084	0.887	0.875	0.971	0.830	0.821	0.940	0.969	1.014	1.176	1.151	1.294	1.390	1.640	2.138	2.844	4.591	5.544	4.250	2.769	2.678	2.846	3.733	4.333	5.118	12.15	31.25	70.73	99.75
305.0	655.7	662.1	528.4	373.7	303.8	325.6	417.2	529.2	686.7	923.8	1408	1518	1044	806.8	975.5	2955	9893	4467	73.29	10.25	5.658	4.085	3.096	2.600	2.073	1.854	1.598	1.555	1.447	1.290	1.244	1.004	1.016	1.337	1.453	1.459	1.855	1.631	1.541	1.497	1.372	1.530	1.455	1.478	1.572	1.780	1.586	1.827	1.900	1.461	1.235	1.463	1.283	1.284	1.440	1.579	1.735	2.227	2.368	2.658	3.042	3.388	4.029	4.574	5.032	6.837	8.258	7.982	5.759	5.219	4.767	4.785	4.742	6.235	10.19	20.86	47.56
310.0	928.0	994.1	824.5	583.6	486.0	513.1	639.8	804.2	978.0	1252	1562	1947	1859	1266	1053	1272	3715	6584	5753	306.0	21.05	5.811	4.156	3.214	2.585	2.208	1.952	1.769	1.643	1.485	1.334	1.122	1.079	1.292	1.564	1.756	1.928	1.940	2.066	1.978	1.917	1.980	1.995	1.961	2.064	2.521	2.515	2.833	2.693	2.190	1.930	2.181	1.923	2.004	2.014	2.210	2.621	3.230	3.542	4.012	4.187	4.830	5.608	6.063	6.303	7.242	8.061	9.272	10.12	9.344	7.620	6.418	5.891	6.002	6.505	8.234	14.25
315.0	1207	1378	1173	825.8	653.5	647.1	801.3	949.3	1085	1355	1634	1887	2032	1813	1255	977.0	1463	1913	5136	7482	477.4	19.26	5.563	4.455	3.201	2.490	2.138	1.934	1.889	1.710	1.511	1.317	1.255	1.389	1.598	1.879	2.216	2.128	2.252	2.280	2.319	2.345	2.235	2.512	2.742	3.169	3.493	3.782	3.636	3.007	2.459	2.652	2.624	2.370	2.633	2.691	3.118	3.868	4.353	4.418	4.456	5.361	5.905	6.403	6.952	7.756	8.153	8.858	9.067	9.660	10.39	9.772	7.793	7.248	6.324	5.990	6.832
320.0	1420	1603	1413	964.9	744.3	718.9	867.0	1008	1121	1390	1658	1903	1914	1936	1546	975.2	990.9	779.2	1509	6630	4229	374.3	11.31	5.268	4.174	3.035	2.605	2.116	2.024	1.753	1.557	1.288	1.196	1.277	1.628	1.786	2.159	2.476	2.196	2.305	2.374	2.576	2.469	2.826	3.025	3.618	3.962	4.659	3.985	3.454	2.912	3.144	2.914	2.641	2.892	2.995	3.547	4.130	4.489	4.716	4.555	5.442	6.001	6.439	7.054	7.789	8.242	9.205	9.191	9.047	9.411	10.82	10.00	9.205	6.768	5.773	5.818
325.0	1584	1845	1658	1148	813.4	743.6	849.2	985.5	1068	1308	1569	1790	1787	1701	1671	1053	852.6	516.8	442.8	2103	7191	3776	58.53	8.141	5.200	3.519	2.646	2.459	2.212	2.051	1.677	1.319	1.333	1.293	1.589	1.833	2.117	2.405	2.224	2.405	2.648	2.656	2.632	3.053	3.266	4.159	4.384	5.180	4.578	3.919	3.477	3.843	3.219	2.902	3.032	3.142	3.438	4.283	4.365	4.628	4.569	4.891	5.780	6.295	6.627	7.448	7.564	8.341	8.606	8.635	8.315	8.711	9.169	9.765	8.380	6.372	5.208
330.0	1784	2164	2146	1645	1137	837.6	821.9	916.8	980.3	1167	1420	1625	1638	1510	1412	1181	879.9	462.1	236.8	549.6	2262	5358	5015	1116	18.63	4.919	3.540	2.841	2.798	2.339	1.722	1.543	1.424	1.426	1.652	1.723	2.108	2.200	2.278	2.348	2.529	2.762	2.947	3.249	3.761	4.711	5.231	6.129	5.786	5.302	4.831	5.244	4.495	3.923	3.399	3.220	3.379	3.872	4.025	4.341	4.230	4.474	5.208	5.627	6.135	6.675	7.097	7.698	8.158	7.874	7.736	7.609	7.516	7.977	7.612	6.933	6.791
335.0	1958	2485	2583	2242	1639	1041	843.5	877.0	907.9	1057	1287	1492	1533	1417	1256	1049	1021	559.8	244.4	245.7	593.3	1335	4121	7115	415.1	18.46	4.798	3.713	3.206	2.763	2.052	1.659	1.530	1.523	1.639	1.736	2.301	2.245	2.289	2.510	2.609	2.801	3.007	3.586	4.233	5.301	5.826	6.839	7.051	6.714	6.371	7.404	6.655	5.550	4.319	3.656	3.824	3.785	3.947	4.147	3.856	4.391	4.713	5.539	5.511	6.174	6.372	6.877	7.310	7.285	7.533	7.173	7.233	7.210	6.509	6.232	6.619
340.0	1975	2490	2703	2415	1752	1067	802.2	815.6	831.8	954.9	1149	1336	1394	1298	1130	904.8	898.6	681.0	283.9	185.4	230.1	375.3	1162	5705	5981	337.2	9.866	4.530	3.770	2.922	2.384	1.749	1.576	1.529	1.557	1.857	2.120	2.107	2.265	2.315	2.595	2.830	2.950	3.369	4.075	5.244	5.848	7.371	7.400	6.966	6.995	7.589	6.908	6.024	4.627	3.655	3.681	3.483	3.553	3.732	3.901	4.192	4.166	4.775	4.917	5.717	5.773	6.146	6.600	7.193	6.791	6.501	6.664	6.589	5.562	5.510	5.430
345.0	1876	2386	2582	2306	1704	1026	735.5	739.7	731.4	837.7	1008	1163	1223	1148	996.2	788.9	701.7	641.3	383.7	183.9	152.2	164.1	324.1	1720	6406	3263	51.56	6.490	4.606	3.246	2.425	2.002	1.620	1.722	1.657	1.784	2.133	2.046	1.919	2.163	2.370	2.708	2.942	3.154	4.028	4.971	5.367	6.867	6.881	6.736	6.552	7.456	6.583	5.895	4.387	3.629	3.393	3.226	3.332	3.201	3.564	3.677	3.871	4.054	4.282	4.915	5.263	5.554	5.960	5.817	6.231	5.666	5.731	6.019	5.014	4.797	4.742
350.0	1741	2191	2380	2240	1691	989.5	688.2	653.3	651.9	731.3	863.2	983.8	1038	991.6	866.8	693.5	588.3	482.3	428.3	288.1	160.4	127.7	147.1	433.3	1890	4302	4288	1052	17.30	4.478	2.984	2.236	1.752	1.645	1.723	1.747	1.848	1.906	1.836	2.053	2.191	2.513	2.706	2.966	3.580	4.433	4.976	6.215	6.471	6.353	6.345	7.304	6.477	5.704	4.534	3.242	3.105	3.029	2.892	3.077	3.121	3.105	3.396	3.610	3.832	4.052	4.660	4.766	5.163	4.969	5.201	4.997	5.135	5.031	4.664	4.235	4.204
355.0	1514	1918	2110	2016	1599	935.1	633.3	590.2	576.9	641.8	738.4	834.7	876.0	850.8	743.4	607.6	514.7	395.5	323.2	353.7	242.2	132.4	112.4	153.4	450.2	1026	3216	6419	391.9	18.11	4.398	2.805	1.990	1.793	1.725	1.861	1.867	1.903	1.933	2.016	1.948	2.238	2.329	2.850	3.090	3.948	4.284	5.420	5.720	5.901	5.806	6.734	6.190	5.471	4.223	3.268	2.913	2.735	2.798	2.687	2.755	2.682	2.858	3.142	3.147	3.822	3.837	3.806	4.310	4.262	4.550	4.588	4.388	4.328	4.270	3.932	3.744
360.0	1356	1669	1847	1777	1421	868.2	589.9	533.0	534.8	578.5	641.7	719.6	753.7	723.3	648.1	540.1	453.8	347.9	265.8	286.4	312.7	170.1	107.3	91.54	134.6	251.6	855.5	4987	6015	333.6	8.675	3.335	2.445	1.955	1.844	1.841	1.910	1.798	1.852	1.801	1.801	2.028	2.364	2.734	2.928	3.508	3.953	4.755	4.940	5.199	5.034	6.131	5.730	5.120	3.744	2.873	2.727	2.699	2.674	2.516	2.527	2.607	2.558	2.923	2.954	3.324	3.320	3.530	3.684	3.797	3.846	4.104	3.937	3.936	3.743	3.566	3.139
365.0	1205	1468	1641	1593	1270	786.3	558.3	495.9	494.3	517.8	580.0	629.8	664.5	641.5	576.3	488.0	410.1	318.0	249.2	222.3	288.4	246.9	121.5	80.93	68.25	83.05	211.9	1472	6101	3140	47.45	5.165	2.787	2.318	2.063	1.848	1.799	1.847	1.690	1.736	1.794	1.854	2.233	2.273	2.640	3.041	3.366	4.153	4.491	4.435	4.491	5.488	5.097	4.615	3.549	2.684	2.661	2.476	2.484	2.189	2.398	2.432	2.471	2.772	2.753	2.767	2.965	3.188	3.123	3.249	3.351	3.597	3.433	3.597	3.246	3.102	2.952
370.0	1030	1248	1395	1368	1136	731.4	509.5	463.7	452.7	474.6	518.5	554.1	577.1	560.4	504.4	434.8	371.6	300.0	240.1	203.0	209.0	252.4	203.7	102.4	63.32	53.72	75.04	351.5	1761	4151	3945	866.0	14.12	3.123	2.351	2.024	1.942	1.732	1.610	1.516	1.709	1.662	1.888	2.105	2.413	2.784	2.872	3.603	3.835	3.893	3.852	4.643	4.358	4.086	3.319	2.577	2.336	2.229	2.285	2.143	2.241	2.262	2.310	2.401	2.652	2.654	2.675	2.845	2.850	2.965	3.022	3.234	2.929	3.174	2.770	2.831	2.640
375.0	868.5	1037	1157	1134	985.8	672.0	473.7	434.2	427.7	436.7	477.0	496.9	508.8	490.7	441.2	384.0	336.4	279.2	228.7	198.2	179.4	182.5	230.2	179.8	81.62	58.75	56.21	109.9	416.8	993.5	2966	4467	327.7	13.94	2.855	2.242	2.157	1.838	1.626	1.477	1.498	1.601	1.785	1.831	2.124	2.287	2.681	3.125	3.287	3.197	3.242	3.956	3.491	3.631	3.086	2.362	2.213	2.155	2.072	2.168	1.976	2.121	2.178	2.159	2.381	2.511	2.430	2.355	2.697	2.708	2.596	2.780	2.743	2.776	2.461	2.469	2.354
380.0	803.8	915.6	1008	1014	871.0	620.7	449.3	416.4	404.5	412.9	444.6	458.4	465.3	444.1	402.6	352.8	313.1	265.8	222.3	196.2	170.5	160.8	185.0	223.2	123.6	69.23	59.85	66.30	123.9	248.6	821.4	3365	2766	260.5	5.977	2.565	2.454	2.022	1.574	1.441	1.381	1.621	1.525	1.757	1.936	2.208	2.450	2.794	2.933	2.617	2.900	3.584	3.289	3.312	2.816	2.240	2.005	2.094	2.087	2.032	1.932	1.990	2.123	2.200	2.253	2.519	2.163	2.275	2.553	2.440	2.736	2.396	2.528	2.463	2.343	2.150	2.203
385.0	733.2	826.0	895.9	885.9	779.7	588.5	429.4	399.5	385.6	391.7	415.6	425.0	438.9	413.3	370.3	325.8	288.4	252.0	219.2	196.7	170.8	155.6	153.7	195.7	183.0	92.16	66.98	61.10	62.82	84.63	215.7	1006	3254	2404	38.01	3.869	2.649	2.152	1.612	1.534	1.536	1.636	1.444	1.678	1.884	2.075	2.004	2.246	2.572	2.294	2.447	3.080	3.031	2.895	2.683	2.145	1.945	1.971	1.926	1.947	1.821	2.085	2.036	2.028	1.962	2.247	2.238	2.079	2.323	2.220	2.325	2.528	2.275	2.249	2.216	2.098	2.081
390.0	630.9	729.2	772.4	769.6	682.4	538.1	409.2	373.6	365.3	371.4	381.6	392.0	395.4	376.4	334.2	297.4	270.8	240.9	213.8	191.7	172.6	156.9	144.0	148.8	177.0	154.1	89.69	64.01	53.62	53.29	78.62	250.1	954.4	2368	2266	589.2	11.72	2.708	1.986	1.625	1.502	1.585	1.592	1.592	1.745	1.890	1.797	2.102	2.204	2.035	2.242	2.597	2.689	2.698	2.339	1.937	1.872	1.898	1.851	1.892	1.766	1.998	1.938	1.868	1.938	1.998	2.203	2.022	2.087	2.060	2.171	2.255	2.097	2.009	2.133	2.070	1.956
395.0	578.2	636.0	677.1	677.4	614.5	494.8	396.3	361.7	343.2	358.5	365.5	366.3	363.3	348.8	304.3	275.9	254.6	231.4	204.1	190.0	174.0	159.7	146.9	135.4	131.8	167.6	148.4	81.32	59.95	51.72	52.85	82.90	229.8	566.6	1616	2808	269.0	9.171	2.325	1.814	1.713	1.570	1.554	1.482	1.611	1.751	1.636	1.856	1.998	1.878	1.965	2.346	2.452	2.398	2.017	1.771	1.834	1.944	1.882	1.804	1.669	2.009	1.846	1.821	1.835	1.875	1.969	2.028	2.017	1.844	1.979	2.082	1.876	2.043	2.077	1.942	2.060
400.0	518.2	585.2	608.4	610.0	558.3	467.5	387.1	351.5	339.9	339.7	354.3	351.8	347.8	325.8	291.7	264.7	243.9	226.4	203.3	190.9	175.1	163.5	150.9	134.8	123.8	139.0	173.0	115.8	68.20	56.55	51.96	50.35	69.87	138.7	444.6	2119	2205	201.6	3.869	2.140	1.786	1.575	1.398	1.428	1.691	1.709	1.566	1.828	1.915	1.660	1.687	2.283	2.313	2.298	1.963	1.687	1.797	1.754	1.664	1.767	1.749	1.788	1.758	1.701	1.721	1.761	1.797	1.882	1.820	1.886	1.777	1.920	1.689	1.875	1.963	1.744	1.922
405.0	495.8	553.8	571.4	573.4	524.5	442.5	373.8	343.5	326.3	331.4	346.0	340.9	334.0	315.5	276.3	256.8	234.8	219.0	200.5	187.5	172.5	160.4	152.8	139.3	124.3	120.2	153.1	156.9	89.47	61.60	55.23	45.92	36.50	44.29	109.6	628.8	2382	1841	32.14	2.833	1.954	1.660	1.463	1.509	1.547	1.571	1.529	1.765	1.876	1.646	1.666	2.104	1.983	2.156	1.964	1.720	1.616	1.655	1.686	1.644	1.530	1.715	1.748	1.668	1.813	1.712	1.806	1.664	1.783	1.910	1.825	1.640	1.713	1.806	1.841	1.662	1.721
410.0	464.4	507.0	520.8	512.2	484.2	415.9	358.3	337.8	318.1	316.3	323.8	322.4	310.7	292.3	262.2	237.8	220.7	207.9	191.1	181.3	168.1	158.3	151.1	137.3	125.0	114.2	119.9	144.1	130.7	77.22	57.60	45.43	31.20	25.69	35.65	149.4	705.5	1783	1528	145.9	8.707	2.013	1.655	1.496	1.515	1.705	1.392	1.656	1.642	1.634	1.586	1.867	1.868	2.014	1.790	1.708	1.626	1.648	1.690	1.636	1.615	1.678	1.708	1.657	1.664	1.603	1.615	1.539	1.656	1.772	1.763	1.701	1.624	1.661	1.723	1.610	1.540
415.0	447.5	475.1	476.4	465.0	437.8	391.3	350.3	326.2	308.3	305.0	310.9	303.1	285.0	267.7	246.5	220.2	205.0	195.9	182.7	172.8	163.9	154.6	146.0	136.5	125.7	113.4	108.8	107.6	128.9	114.7	66.72	45.28	31.65	23.37	21.09	42.54	164.3	427.3	1103	1776	225.1	6.923	2.032	1.550	1.508	1.645	1.452	1.557	1.600	1.378	1.382	1.872	1.676	1.817	1.682	1.550	1.625	1.586	1.558	1.669	1.511	1.478	1.642	1.594	1.610	1.636	1.624	1.504	1.448	1.530	1.513	1.604	1.721	1.647	1.765	1.505	1.624
420.0	421.7	465.5	447.5	433.8	410.5	379.6	336.8	319.0	304.8	298.0	298.7	286.0	270.0	253.4	229.7	209.1	196.8	184.6	174.9	167.4	158.2	148.4	144.2	132.8	124.5	112.7	103.9	96.96	105.4	127.6	88.24	49.21	33.38	24.47	18.66	19.92	44.56	101.6	302.4	1391	1577	35.13	3.448	1.827	1.515	1.592	1.516	1.552	1.469	1.233	1.400	1.758	1.628	1.679	1.797	1.570	1.517	1.526	1.681	1.578	1.508	1.626	1.555	1.574	1.673	1.665	1.488	1.473	1.423	1.545	1.544	1.557	1.562	1.623	1.534	1.382	1.553
425.0	425.0	412.5	415.1	392.9	395.1	364.8	322.1	311.6	299.9	286.0	279.3	272.0	262.5	241.7	218.1	198.6	189.0	178.6	165.6	160.3	153.5	142.6	139.9	132.6	121.1	109.9	102.4	94.48	89.91	111.0	113.2	62.04	36.26	26.33	19.44	16.47	18.91	29.33	73.34	421.3	1558	1208	29.88	2.507	1.811	1.520	1.457	1.440	1.416	1.285	1.365	1.645	1.493	1.625	1.671	1.533	1.687	1.608	1.672	1.457	1.529	1.555	1.391	1.592	1.558	1.530	1.429	1.495	1.457	1.397	1.437	1.386	1.420	1.643	1.387	1.418	1.482
430.0	744.6	387.9	380.4	371.9	370.9	349.8	321.5	305.9	291.1	274.5	272.4	260.5	247.3	228.5	208.4	190.0	177.4	169.6	159.2	150.0	145.3	137.0	131.9	125.5	117.5	108.6	101.4	93.54	85.05	86.97	103.0	89.50	46.77	29.92	22.32	17.38	14.72	14.30	22.20	99.07	451.4	1124	1171	134.6	8.394	1.874	1.632	1.535	1.405	1.276	1.277	1.549	1.436	1.547	1.598	1.487	1.668	1.507	1.600	1.550	1.503	1.439	1.445	1.500	1.493	1.532	1.376	1.323	1.357	1.331	1.359	1.421	1.288	1.508	1.318	1.424	1.331
435.0	1829	407.8	362.5	360.3	356.4	334.9	332.1	303.8	282.5	270.7	261.2	248.3	234.7	219.5	197.2	178.3	168.3	160.9	152.0	142.7	137.6	130.4	124.0	118.9	113.0	105.1	101.3	92.02	82.36	77.67	75.60	89.78	74.46	38.07	25.27	19.34	15.11	12.24	11.85	27.60	105.1	267.4	815.1	1476	213.9	8.737	1.898	1.636	1.398	1.254	1.238	1.582	1.482	1.656	1.539	1.594	1.742	1.451	1.596	1.519	1.353	1.444	1.345	1.351	1.344	1.489	1.348	1.415	1.330	1.314	1.362	1.491	1.360	1.280	1.330	1.431	1.315
440.0	2654	651.4	333.5	345.5	343.5	326.7	333.5	307.0	282.2	263.4	254.9	235.5	222.0	209.8	186.9	171.5	161.9	154.1	146.2	137.2	131.1	122.8	118.8	113.3	108.4	101.7	96.56	90.44	82.43	75.77	68.23	71.45	83.26	49.57	29.40	21.05	16.02	12.70	10.67	11.90	28.22	63.55	222.3	1131	1344	179.9	3.831	1.704	1.538	1.338	1.081	1.479	1.411	1.631	1.486	1.541	1.641	1.614	1.752	1.445	1.376	1.316	1.426	1.485	1.246	1.391	1.374	1.391	1.226	1.203	1.349	1.304	1.292	1.280	1.202	1.284	1.170
445.0	2811	1325	344.5	317.3	334.2	319.0	327.4	305.9	281.1	258.8	244.5	226.2	213.5	198.8	178.9	164.4	154.7	146.9	141.9	133.8	125.4	118.6	112.3	111.8	105.7	98.85	92.08	86.93	80.31	74.04	67.54	60.55	70.76	69.04	38.44	23.15	17.10	13.66	11.13	9.256	11.26	18.19	53.52	337.9	1286	1476	26.79	2.295	1.692	1.457	1.218	1.465	1.490	1.456	1.380	1.534	1.613	1.480	1.553	1.545	1.441	1.462	1.449	1.353	1.495	1.246	1.288	1.344	1.242	1.215	1.354	1.222	1.238	1.221	1.296	1.186	1.090
450.0	1780	2552	631.7	305.6	314.0	313.9	314.7	295.8	267.9	242.8	229.2	217.6	200.6	182.4	166.6	151.9	144.9	137.4	131.1	124.5	114.9	110.0	104.5	103.7	97.97	92.92	86.80	83.26	78.45	71.95	64.72	56.59	53.29	62.09	54.61	30.87	19.13	14.82	11.52	9.863	8.301	8.879	15.87	79.37	368.2	1303	1277	121.9	7.891	1.505	1.308	1.463	1.402	1.462	1.517	1.435	1.527	1.502	1.548	1.441	1.429	1.453	1.381	1.342	1.336	1.335	1.314	1.125	1.281	1.193	1.229	1.121	1.126	1.152	1.161	1.138	1.204
455.0	698.5	2662	1706	314.0	289.5	284.8	300.8	286.5	253.7	228.5	215.7	201.8	187.4	167.8	153.4	138.9	133.3	124.6	119.6	113.8	104.6	97.83	95.86	92.22	89.59	86.91	80.47	77.13	73.54	67.47	61.86	53.66	46.42	44.93	52.17	45.75	24.55	15.47	12.44	10.07	8.272	7.206	7.837	21.12	85.15	306.8	738.0	1216	185.7	7.480	1.473	1.547	1.385	1.526	1.403	1.447	1.491	1.683	1.418	1.321	1.402	1.365	1.313	1.312	1.302	1.265	1.109	1.048	1.087	1.093	1.147	1.107	1.125	1.131	1.069	0.967	1.076
460.0	379.6	1734	2788	496.9	267.7	268.1	282.6	272.5	240.4	219.4	196.9	189.8	173.7	157.4	144.3	129.5	123.8	115.9	111.0	103.3	96.27	90.92	88.70	86.33	82.84	79.81	76.05	73.57	69.07	65.18	59.08	51.70	44.52	38.34	41.07	49.77	33.28	17.14	12.55	10.37	8.529	7.386	6.347	8.388	22.28	71.64	189.1	841.0	1085	139.0	3.528	1.703	1.365	1.498	1.377	1.409	1.377	1.501	1.444	1.288	1.339	1.324	1.225	1.286	1.180	1.265	1.090	1.088	0.962	1.071	1.024	0.982	0.891	0.991	1.014	0.822	1.080
465.0	289.3	838.2	3216	863.6	264.0	263.6	269.6	251.2	224.3	208.0	188.8	175.9	165.6	147.3	132.6	120.3	113.5	108.8	102.3	96.59	90.11	82.87	83.07	78.72	76.83	74.11	70.84	69.23	64.41	62.67	56.48	48.96	43.11	35.80	32.58	40.80	40.97	21.77	13.20	10.48	8.411	7.139	6.382	5.951	8.395	18.81	45.46	239.1	957.9	938.5	22.11	2.417	1.553	1.594	1.393	1.359	1.276	1.366	1.420	1.339	1.246	1.492	1.261	1.127	1.037	1.124	1.093	1.047	1.066	1.083	1.039	1.024	0.894	0.984	1.059	0.854	0.884
470.0	294.6	377.4	1951	2092	427.2	238.4	243.2	232.9	209.5	187.1	172.3	159.3	150.1	132.1	118.9	107.0	102.4	97.74	90.63	87.18	78.79	73.17	73.00	70.33	68.05	66.10	64.42	62.71	59.68	56.78	52.27	46.43	38.35	33.47	28.99	29.02	34.65	31.71	17.85	11.20	8.860	7.425	6.399	5.921	5.440	7.182	13.03	55.96	263.3	722.4	750.1	270.3	8.616	1.714	1.444	1.343	1.240	1.327	1.336	1.258	1.193	1.238	1.099	1.049	0.944	1.076	1.036	0.887	0.939	1.040	0.968	0.890	0.835	0.948	0.932	0.864	0.815
475.0	323.8	259.9	700.7	2257	1169	230.8	213.0	208.1	184.9	167.8	155.0	141.6	133.2	118.7	104.9	94.48	90.08	85.12	78.98	75.16	67.94	64.31	62.38	61.14	58.38	59.19	57.45	54.69	53.08	51.02	46.70	41.79	36.04	30.89	26.16	23.46	23.04	28.88	25.89	13.79	9.205	7.734	6.382	5.888	5.146	5.072	5.811	14.85	60.73	166.0	368.9	853.5	192.8	10.83	1.519	1.297	1.184	1.322	1.337	1.234	1.032	1.121	0.968	1.046	0.937	0.853	0.955	0.862	0.876	0.847	0.830	0.885	0.792	0.787	0.720	0.696	0.730
480.0	303.5	241.1	309.2	1480	1970	343.1	195.4	191.4	174.7	156.4	140.8	135.6	124.3	107.3	96.85	90.24	82.35	77.31	72.24	67.74	62.67	58.65	56.20	55.40	54.12	53.46	50.71	50.05	49.04	47.09	44.09	38.02	33.83	29.50	25.07	21.27	18.88	22.01	27.63	19.21	10.65	7.587	6.433	5.556	5.053	4.604	4.050	5.686	15.56	38.83	90.85	470.9	868.3	176.9	4.985	1.367	1.209	1.276	1.172	1.092	1.086	1.053	0.956	0.978	0.874	0.896	0.797	0.819	0.800	0.793	0.797	0.799	0.811	0.739	0.775	0.756	0.740
485.0	288.4	252.8	206.4	702.7	2284	570.0	182.8	173.5	159.8	143.1	130.4	127.1	113.1	100.8	87.84	82.26	77.37	70.61	66.53	61.03	57.82	54.37	52.07	51.31	50.34	49.05	47.93	46.88	46.77	44.19	40.70	36.45	31.52	28.01	23.59	20.92	17.99	17.26	23.10	23.79	13.98	8.262	6.674	5.670	5.030	4.467	3.970	3.625	5.460	10.66	22.03	124.0	629.4	865.3	27.82	2.585	1.351	1.272	1.093	1.086	1.083	0.980	1.023	0.942	0.786	0.855	0.683	0.886	0.753	0.750	0.811	0.710	0.763	0.755	0.839	0.719	0.706
490.0	201.4	283.8	187.1	294.0	1451	1725	312.4	163.6	145.5	129.8	119.9	115.0	102.6	91.45	80.42	73.45	69.03	64.41	60.04	56.27	51.29	49.36	46.57	45.63	45.08	44.69	42.91	42.52	41.94	40.11	37.81	34.14	29.99	26.01	22.02	19.45	16.78	15.27	15.97	20.30	19.44	11.31	7.149	5.637	5.022	4.410	4.147	3.665	3.483	4.221	6.644	29.29	162.2	523.1	736.1	305.1	11.31	1.431	1.131	1.007	1.122	0.874	0.907	0.926	0.798	0.798	0.778	0.810	0.782	0.732	0.767	0.721	0.716	0.658	0.752	0.663	0.686
495.0	138.6	247.9	210.8	173.3	526.9	2019	1042	155.5	129.4	121.6	108.6	102.0	92.78	81.18	72.96	65.19	60.23	56.38	52.98	50.26	45.48	43.31	41.15	40.99	40.28	39.05	38.36	37.86	37.29	35.84	34.42	31.18	27.76	23.55	20.94	17.71	15.85	13.70	12.43	14.17	18.41	16.79	9.412	5.892	5.390	4.252	4.022	3.727	3.280	2.909	3.109	8.104	37.67	119.3	333.9	843.9	228.6	14.31	1.343	1.048	0.971	0.963	0.822	0.833	0.764	0.790	0.709	0.782	0.752	0.646	0.703	0.653	0.600	0.660	0.754	0.674	0.687
500.0	127.1	201.9	236.5	150.9	219.7	1375	1953	247.1	116.1	108.5	99.63	94.04	84.12	75.31	67.02	59.96	53.49	50.06	48.40	44.43	40.27	39.20	36.61	36.35	35.72	34.68	35.21	34.29	33.78	33.13	31.04	28.64	25.25	21.98	18.90	16.89	14.83	13.34	11.32	11.32	13.53	17.74	13.11	6.655	5.070	4.218	3.972	3.450	3.574	2.904	2.346	3.306	9.821	28.13	80.03	407.3	789.8	200.1	8.156	1.126	0.973	0.879	0.838	0.911	0.837	0.715	0.695	0.739	0.746	0.704	0.696	0.688	0.640	0.571	0.699	0.620	0.600
505.0	108.9	147.7	237.5	156.4	138.0	633.0	2424	621.3	110.6	97.92	93.77	88.35	80.57	69.23	62.00	55.66	48.00	45.52	44.11	39.80	36.40	34.86	34.63	33.40	31.74	31.91	32.75	31.62	30.35	30.29	28.53	26.14	23.24	20.22	17.46	16.13	13.80	12.08	10.33	9.973	10.14	14.19	15.09	8.594	5.384	4.195	3.889	3.299	3.256	3.006	2.209	2.207	3.544	7.727	19.36	101.0	462.9	731.9	153.8	3.370	1.105	0.781	0.900	0.818	0.813	0.778	0.611	0.756	0.697	0.664	0.685	0.584	0.617	0.576	0.590	0.551	0.624
510.0	98.75	116.0	183.6	192.8	116.1	239.0	1581	1587	205.3	87.48	84.14	77.22	69.65	59.28	53.38	47.28	43.31	40.04	38.26	35.57	31.67	30.86	29.61	29.01	28.16	27.68	27.87	27.46	26.91	26.10	24.95	23.11	20.27	17.54	15.91	14.48	12.39	11.15	9.807	9.079	8.386	9.340	12.79	12.47	7.299	4.677	3.714	3.162	2.991	2.855	2.463	2.143	2.107	3.049	5.546	23.78	113.6	365.0	531.3	249.2	12.31	1.016	0.883	0.821	0.722	0.703	0.621	0.609	0.631	0.602	0.595	0.536	0.589	0.593	0.529	0.595	0.600
515.0	91.03	94.86	119.5	204.6	126.2	126.3	532.7	1918	829.6	85.77	73.62	68.70	60.27	51.56	44.96	40.20	37.25	34.20	32.70	30.81	27.57	26.26	25.14	25.31	24.15	24.59	23.31	24.18	23.35	22.84	21.30	19.47	17.56	15.74	14.10	12.57	11.50	10.36	8.704	7.802	7.127	7.041	8.075	11.77	10.76	5.870	3.629	3.166	2.961	2.632	2.411	2.352	1.905	1.896	2.404	6.466	26.55	82.75	182.9	537.3	233.0	16.84	0.993	0.798	0.736	0.632	0.614	0.625	0.548	0.529	0.565	0.531	0.519	0.539	0.495	0.501	0.547
520.0	80.55	82.78	86.93	167.6	148.2	92.89	191.6	1324	1657	158.3	66.83	58.11	53.24	45.31	38.95	35.96	33.60	30.19	30.11	26.63	24.22	23.33	22.47	21.95	21.96	21.46	21.45	20.88	20.66	20.69	18.92	17.47	15.79	14.16	13.24	11.16	10.05	9.298	7.927	7.335	6.729	5.754	6.195	8.421	11.67	8.209	4.337	2.979	2.773	2.351	2.132	2.570	2.151	1.717	1.737	2.485	7.052	19.51	42.93	222.7	571.7	203.0	10.01	0.841	0.585	0.656	0.586	0.604	0.561	0.532	0.479	0.486	0.486	0.534	0.463	0.485	0.556
525.0	80.34	72.67	76.71	122.8	177.7	92.02	102.5	591.2	2121	480.5	63.35	54.85	49.17	41.21	34.67	32.67	29.83	27.52	25.67	23.04	21.84	21.37	20.29	19.31	19.74	19.05	19.03	19.17	18.42	18.16	17.55	15.97	14.26	12.61	11.67	10.48	9.803	8.461	7.324	6.880	6.375	5.496	5.242	5.696	9.550	9.379	5.631	3.148	2.565	2.268	1.874	2.149	2.448	1.921	1.394	1.639	2.509	5.344	10.73	53.50	291.0	531.2	157.6	3.823	0.632	0.651	0.627	0.552	0.482	0.572	0.562	0.481	0.454	0.521	0.523	0.517	0.494
530.0	67.29	59.33	62.30	77.36	152.0	118.5	77.18	195.5	1387	1428	145.0	49.59	42.57	36.08	30.53	27.75	26.18	23.75	22.45	20.44	19.49	18.59	17.83	17.35	16.70	16.03	16.72	16.14	16.04	16.02	15.14	13.92	12.44	11.64	10.26	9.393	8.359	7.857	6.804	5.959	5.564	5.073	4.700	4.437	6.100	7.954	7.680	4.525	2.649	2.269	1.845	1.753	1.867	2.029	1.730	1.385	1.459	2.152	3.323	12.86	69.64	232.6	397.6	208.8	12.82	0.807	0.569	0.537	0.514	0.504	0.527	0.452	0.419	0.457	0.469	0.468	0.409
535.0	59.80	61.14	60.02	56.63	101.3	147.8	73.31	89.49	433.2	1794	699.2	48.74	37.83	32.63	26.41	24.08	22.57	20.44	18.78	17.71	16.00	15.80	14.65	14.72	14.36	14.39	14.43	13.50	13.78	13.21	12.90	11.99	10.96	9.893	8.318	7.980	7.210	6.508	6.182	5.586	4.942	4.355	4.191	4.004	3.967	5.268	7.196	6.306	3.454	2.281	1.738	1.611	1.635	1.484	1.951	1.532	1.319	1.479	1.606	3.672	16.22	52.69	122.8	384.4	228.3	17.55	0.746	0.625	0.564	0.488	0.486	0.436	0.403	0.436	0.444	0.450	0.403
540.0	62.47	54.35	51.12	47.00	70.73	156.3	85.14	61.43	138.7	1206	1469	106.7	34.01	29.27	23.12	21.99	19.31	17.60	16.69	15.61	13.54	13.16	12.86	12.93	12.89	12.38	12.52	11.70	12.02	12.55	11.17	10.23	9.851	9.264	7.620	7.253	6.571	5.800	5.490	4.783	4.224	4.007	3.753	3.578	3.344	3.608	5.381	6.349	4.482	2.308	1.740	1.644	1.408	1.338	1.506	1.760	1.347	1.142	1.084	1.601	4.303	12.51	28.44	147.5	405.7	190.1	9.548	0.668	0.598	0.491	0.458	0.383	0.400	0.385	0.375	0.374	0.348
545.0	50.84	51.50	45.85	44.48	52.55	130.1	108.3	50.77	65.50	490.2	1926	215.2	31.96	25.88	21.51	18.92	17.22	16.01	14.57	13.15	12.57	11.71	11.31	11.25	10.91	11.19	10.78	10.84	10.60	10.51	9.788	9.244	8.437	7.913	6.862	6.523	5.956	5.268	4.993	4.408	3.955	3.736	3.525	3.261	3.173	2.748	3.758	5.549	5.753	3.155	1.824	1.486	1.151	1.389	1.355	1.690	1.564	1.204	0.957	1.104	1.630	3.435	7.131	35.00	189.6	385.1	129.5	3.298	0.601	0.570	0.439	0.409	0.332	0.433	0.390	0.403	0.396
550.0	48.57	43.20	38.62	38.67	39.45	77.41	126.9	55.96	43.45	145.7	1208	1183	86.31	22.35	19.20	16.64	14.71	13.51	12.55	11.21	10.76	10.14	9.681	9.570	9.444	9.044	8.966	8.980	9.090	8.707	8.138	7.851	7.117	6.568	5.619	5.484	4.865	4.572	4.061	3.605	3.469	3.274	3.064	2.751	2.658	2.413	2.505	3.526	4.765	4.037	2.396	1.486	1.119	1.151	1.036	1.170	1.469	1.410	0.900	0.828	0.923	1.370	2.183	8.361	44.98	158.4	270.6	131.3	11.92	0.657	0.418	0.457	0.479	0.411	0.338	0.406	0.396
555.0	46.07	43.48	34.52	34.06	30.41	42.30	108.5	82.45	32.94	55.39	356.7	1650	518.8	22.10	15.56	13.74	11.86	10.88	10.41	9.341	8.656	8.332	8.016	7.879	7.619	6.958	7.559	7.138	7.254	7.365	6.810	6.408	5.806	4.831	4.832	4.655	4.090	3.725	3.411	3.235	2.965	2.642	2.771	2.297	2.240	2.199	2.082	2.317	3.024	3.920	3.100	1.676	1.170	0.909	0.906	0.868	1.021	1.367	1.328	0.847	0.769	0.833	1.018	2.383	10.59	35.95	81.49	237.7	188.4	14.19	0.539	0.434	0.355	0.380	0.364	0.402	0.352
560.0	43.12	39.97	34.69	29.40	27.29	33.21	74.73	108.9	35.02	34.09	102.7	1107	1263	49.08	13.75	11.79	10.06	10.08	8.306	7.884	7.459	6.593	6.712	6.306	6.181	6.137	6.310	6.259	5.691	5.871	6.164	5.309	4.950	4.253	4.247	4.035	3.579	3.159	2.783	2.617	2.535	2.421	2.274	2.048	1.828	1.878	1.744	1.703	1.893	2.936	3.418	2.182	1.130	0.828	0.950	0.805	0.861	1.046	1.420	1.030	0.748	0.697	0.680	1.042	2.818	8.467	18.92	90.65	264.3	127.5	6.043	0.491	0.418	0.388	0.368	0.370	0.375
565.0	41.76	40.51	27.96	26.52	26.48	27.20	44.67	112.9	45.25	26.66	41.56	438.2	1842	139.7	12.30	9.936	9.322	8.464	7.632	7.034	6.546	5.692	5.591	5.591	5.464	5.348	5.419	5.356	5.253	5.061	5.058	4.690	4.281	3.694	3.740	3.409	3.301	2.679	2.553	2.427	2.506	2.240	1.860	1.869	1.600	1.792	1.612	1.301	1.526	1.859	2.786	2.533	1.439	0.798	0.829	0.635	0.794	0.859	1.149	1.132	0.805	0.636	0.627	0.714	1.073	2.429	4.713	21.59	117.9	230.7	33.39	2.451	0.485	0.396	0.408	0.363	0.302
570.0	42.90	37.32	27.52	23.79	20.71	22.70	27.71	81.77	74.80	25.13	26.03	123.2	1195	834.7	41.61	8.837	7.731	7.304	6.563	6.095	5.033	5.059	4.723	4.548	4.657	4.516	4.294	4.169	4.179	4.138	4.326	3.931	3.391	3.141	3.091	2.713	2.641	2.313	2.183	2.053	1.975	1.867	1.591	1.671	1.512	1.490	1.337	1.256	1.235	1.203	1.641	2.311	1.848	1.139	0.800	0.661	0.670	0.712	0.736	0.899	1.007	0.764	0.585	0.600	0.676	0.951	1.501	5.252	27.98	92.93	148.1	97.75	10.13	0.494	0.342	0.364	0.331
575.0	48.22	37.01	27.26	21.07	19.21	19.43	18.72	40.58	96.06	37.88	20.19	42.25	343.4	1203	280.5	8.993	6.806	5.992	5.186	5.519	4.453	3.900	3.981	3.601	3.495	3.536	3.369	3.224	3.924	3.397	3.548	2.884	2.882	2.690	2.624	2.196	2.019	1.941	1.926	1.662	1.605	1.371	1.370	1.334	1.177	1.203	1.083	0.859	1.011	0.839	1.020	1.481	1.957	1.540	0.892	0.634	0.596	0.539	0.613	0.613	0.770	1.068	0.752	0.586	0.492	0.615	0.708	1.583	6.655	21.19	45.52	154.0	114.4	10.70	0.387	0.381	0.398
580.0	40.24	34.75	27.61	21.49	17.86	16.79	16.62	22.57	81.11	57.65	20.43	22.61	92.29	823.1	739.5	21.18	6.643	5.086	4.468	4.479	3.878	3.461	3.347	3.333	3.080	3.237	2.827	3.146	3.296	3.043	3.062	2.851	2.495	2.443	2.223	2.113	1.869	1.815	1.653	1.569	1.371	1.338	1.249	1.113	1.133	0.943	0.910	0.931	0.857	0.792	0.772	0.967	1.566	1.752	1.040	0.730	0.638	0.574	0.640	0.556	0.559	0.999	0.985	0.552	0.583	0.536	0.486	0.768	1.878	5.064	10.64	56.89	151.6	83.98	4.504	0.368	0.396
585.0	39.35	31.77	28.40	20.90	15.69	16.97	16.09	17.12	55.83	75.93	22.90	19.01	32.59	330.6	1068	86.73	6.118	4.757	3.881	3.758	3.490	3.176	2.979	3.266	2.837	2.559	2.479	2.700	2.811	2.708	2.762	2.447	2.291	2.154	1.739	1.949	1.615	1.473	1.520	1.392	1.288	1.140	1.002	1.054	0.953	0.882	0.900	0.810	0.739	0.683	0.603	0.737	1.146	1.666	1.320	0.870	0.598	0.580	0.599	0.491	0.482	0.709	1.080	0.711	0.547	0.477	0.442	0.477	0.799	1.437	2.740	13.51	67.10	152.6	32.02	1.598	0.357
590.0	40.46	34.02	25.75	20.59	14.02	13.54	15.38	15.10	29.93	80.15	40.14	18.44	20.48	91.13	702.2	524.3	20.97	4.426	3.575	3.120	2.878	2.672	2.704	2.494	2.359	2.285	2.274	2.218	2.351	2.296	2.268	2.126	1.881	1.759	1.621	1.568	1.406	1.299	1.331	1.131	1.106	1.034	0.898	0.927	0.854	0.827	0.774	0.764	0.635	0.620	0.555	0.594	0.769	1.110	1.386	1.104	0.679	0.537	0.534	0.474	0.453	0.476	0.693	0.851	0.738	0.442	0.435	0.406	0.551	0.644	0.923	3.322	15.94	61.50	103.1	62.92	8.092
595.0	41.72	36.90	29.44	19.47	18.26	14.21	15.82	15.63	22.31	55.81	69.44	22.60	18.16	31.73	206.0	786.9	93.58	4.256	3.184	2.754	2.538	2.180	2.134	2.214	2.087	2.026	1.990	1.917	2.033	1.793	1.905	1.526	1.565	1.343	1.347	1.231	1.234	1.034	1.025	1.053	0.906	0.891	0.806	0.772	0.782	0.746	0.629	0.625	0.559	0.505	0.521	0.470	0.535	0.624	0.937	1.133	0.876	0.555	0.451	0.505	0.409	0.468	0.464	0.595	0.756	0.642	0.422	0.414	0.417	0.473	0.547	1.046	3.845	14.00	30.88	95.32	75.32
600.0	43.95	41.98	24.57	21.41	17.44	16.01	17.42	18.42	20.05	38.98	84.28	34.08	22.39	21.96	60.25	560.4	454.7	10.12	2.835	2.661	2.278	2.006	1.699	2.143	1.841	1.802	1.638	1.704	1.753	1.635	1.628	1.426	1.302	1.322	1.384	1.243	1.200	0.941	0.857	0.877	0.865	0.734	0.805	0.707	0.725	0.698	0.648	0.636	0.594	0.566	0.525	0.461	0.420	0.492	0.729	1.088	0.970	0.692	0.388	0.447	0.397	0.503	0.455	0.462	0.660	0.776	0.549	0.449	0.426	0.510	0.534	0.511	1.143	3.464	7.335	35.39	101.3
605.0	50.34	41.99	33.60	24.25	18.43	20.36	22.26	23.91	30.45	38.78	89.74	61.11	35.69	28.12	31.58	240.0	728.4	52.08	3.207	2.478	2.191	1.919	1.590	1.854	1.598	1.651	1.360	1.563	1.612	1.529	1.434	1.258	1.118	1.103	1.168	1.064	1.163	0.861	0.865	0.784	0.790	0.699	0.720	0.680	0.698	0.629	0.673	0.505	0.547	0.482	0.447	0.425	0.449	0.513	0.630	0.766	1.034	0.825	0.483	0.513	0.374	0.461	0.416	0.449	0.566	0.776	0.814	0.505	0.483	0.523	0.451	0.425	0.600	1.152	2.000	8.474	44.36
610.0	63.80	48.68	45.03	31.26	24.42	26.55	33.82	38.63	50.18	63.37	94.64	116.9	68.58	51.05	44.57	88.83	547.3	312.3	9.634	2.243	2.006	1.807	1.571	1.544	1.432	1.347	1.306	1.284	1.380	1.514	1.377	1.024	1.026	1.017	1.001	0.885	1.006	1.001	0.729	0.742	0.730	0.638	0.565	0.636	0.640	0.600	0.554	0.508	0.481	0.417	0.439	0.446	0.453	0.454	0.514	0.545	0.838	0.929	0.725	0.572	0.483	0.500	0.589	0.535	0.611	0.653	0.927	0.785	0.702	0.622	0.588	0.542	0.511	0.776	0.960	2.263	10.71
615.0	60.67	57.14	50.79	36.79	29.68	31.14	40.24	49.08	62.13	72.60	93.19	133.0	95.81	62.74	55.28	53.52	194.8	521.0	62.18	2.361	1.607	1.439	1.305	1.341	1.094	1.263	1.282	1.127	1.238	1.180	1.282	0.925	0.938	0.927	0.863	0.863	0.949	0.913	0.839	0.641	0.606	0.695	0.596	0.638	0.551	0.527	0.512	0.516	0.412	0.390	0.429	0.448	0.407	0.429	0.485	0.482	0.577	0.774	0.787	0.626	0.550	0.565	0.651	0.613	0.666	0.673	0.794	0.955	0.925	0.647	0.661	0.517	0.629	0.666	0.635	0.912	2.829
620.0	65.41	59.00	54.75	41.09	33.72	32.56	40.19	46.37	59.33	71.34	88.09	117.5	111.1	66.95	56.37	45.05	77.98	403.7	246.3	4.552	1.624	1.575	1.165	1.235	1.178	1.197	1.219	1.064	1.074	1.081	1.084	0.901	0.858	0.834	0.697	0.765	0.726	0.760	0.782	0.728	0.558	0.565	0.585	0.553	0.509	0.437	0.561	0.463	0.470	0.438	0.357	0.457	0.426	0.414	0.355	0.451	0.452	0.668	0.730	0.859	0.588	0.549	0.630	0.594	0.619	0.593	0.648	0.838	0.886	0.820	0.764	0.585	0.624	0.667	0.670	0.590	0.989
625.0	67.89	67.17	58.70	41.72	32.78	34.22	42.27	46.66	53.84	69.14	83.22	100.9	116.7	69.63	57.19	42.14	47.64	187.5	420.6	22.76	1.709	1.513	1.278	1.087	1.144	0.999	1.025	1.008	0.935	1.005	1.182	0.805	0.776	0.752	0.711	0.630	0.724	0.606	0.724	0.665	0.579	0.526	0.445	0.475	0.529	0.470	0.467	0.497	0.476	0.383	0.340	0.412	0.380	0.381	0.361	0.398	0.429	0.634	0.731	0.803	0.580	0.572	0.523	0.509	0.662	0.567	0.650	0.676	0.819	0.878	0.765	0.587	0.633	0.540	0.555	0.529	0.598
630.0	69.68	70.99	62.50	44.25	34.25	34.04	39.78	47.62	53.60	65.85	78.37	89.72	109.0	80.87	55.94	41.24	39.89	63.42	336.7	164.8	4.198	1.412	1.098	1.022	1.106	0.989	0.873	0.986	0.948	0.936	0.904	0.805	0.740	0.712	0.655	0.584	0.665	0.564	0.656	0.621	0.608	0.517	0.501	0.461	0.495	0.491	0.455	0.463	0.442	0.376	0.326	0.393	0.391	0.379	0.360	0.367	0.440	0.520	0.545	0.690	0.648	0.563	0.588	0.510	0.618	0.618	0.615	0.645	0.742	0.806	0.775	0.708	0.577	0.535	0.516	0.529	0.489
635.0	82.06	74.66	65.18	45.48	34.41	33.66	42.84	46.98	52.35	64.33	75.20	86.16	97.00	92.08	59.29	40.64	36.85	29.09	112.1	347.9	40.01	1.467	1.217	0.932	0.982	0.826	0.761	0.889	0.823	0.794	0.864	0.755	0.637	0.604	0.690	0.510	0.630	0.594	0.613	0.519	0.616	0.577	0.552	0.379	0.422	0.448	0.448	0.492	0.412	0.357	0.383	0.449	0.344	0.312	0.358	0.362	0.447	0.457	0.493	0.585	0.630	0.564	0.604	0.564	0.640	0.632	0.683	0.664	0.714	0.686	0.830	0.781	0.678	0.599	0.485	0.491	0.449
640.0	68.83	79.87	66.27	46.79	34.40	34.76	42.90	44.91	53.04	64.29	73.82	83.00	85.75	95.88	62.81	41.56	36.50	22.29	32.16	296.5	155.9	2.090	1.217	0.875	0.945	0.861	0.850	0.934	0.819	0.833	0.701	0.668	0.628	0.529	0.539	0.428	0.580	0.513	0.531	0.528	0.528	0.631	0.432	0.440	0.388	0.458	0.439	0.439	0.456	0.312	0.373	0.361	0.329	0.355	0.334	0.349	0.427	0.457	0.411	0.399	0.571	0.611	0.602	0.563	0.638	0.620	0.600	0.558	0.609	0.648	0.680	0.843	0.761	0.596	0.582	0.517	0.451
645.0	72.29	76.27	67.68	43.41	35.70	36.34	38.21	43.34	50.07	59.99	70.69	83.17	78.40	85.21	68.18	41.92	35.13	19.60	11.82	146.0	301.5	11.09	1.140	1.146	0.884	0.853	0.737	0.677	0.804	0.704	0.599	0.629	0.541	0.603	0.515	0.589	0.519	0.506	0.504	0.520	0.458	0.584	0.500	0.435	0.468	0.398	0.418	0.436	0.497	0.347	0.312	0.405	0.361	0.388	0.300	0.308	0.412	0.456	0.457	0.434	0.452	0.544	0.589	0.588	0.599	0.531	0.617	0.577	0.597	0.600	0.656	0.806	0.765	0.552	0.508	0.483	0.476
650.0	79.06	72.78	68.25	47.47	33.14	30.06	34.92	42.42	44.56	54.80	66.96	75.80	71.77	73.35	72.18	40.35	33.05	18.05	7.115	44.99	329.0	54.50	1.242	1.075	0.903	0.828	0.765	0.636	0.598	0.697	0.617	0.582	0.539	0.615	0.514	0.580	0.496	0.538	0.487	0.465	0.381	0.456	0.643	0.410	0.441	0.418	0.447	0.463	0.463	0.412	0.315	0.397	0.330	0.367	0.368	0.351	0.413	0.431	0.435	0.429	0.366	0.605	0.576	0.547	0.562	0.550	0.545	0.537	0.584	0.505	0.597	0.663	0.642	0.722	0.562	0.465	0.585
